# Best-fit normalized data and profile from VoigtFit
# column 1 : Wavelength
# column 2 : Normalized flux
# column 3 : Normalized error
# column 4 : Best-fit profile
# column 5 : Pixel mask, 1=included, 0=excluded
1389.106   0.7813   0.2421   1.0000   1
1389.136   0.7914   0.2445   1.0000   1
1389.166   0.9350   0.2621   1.0000   1
1389.196   0.9989   0.2676   1.0000   1
1389.226   1.1056   0.2806   1.0000   1
1389.255   0.9720   0.2666   1.0000   1
1389.285   1.0021   0.2696   1.0000   1
1389.315   1.1004   0.2802   1.0000   1
1389.345   0.9152   0.2604   1.0000   1
1389.375   1.1234   0.2812   1.0000   1
1389.405   0.8083   0.2481   1.0000   1
1389.435   0.9940   0.2694   1.0000   1
1389.465   1.2606   0.2963   1.0000   1
1389.495   0.9590   0.2651   1.0000   1
1389.525   1.0331   0.2733   1.0000   1
1389.554   0.9612   0.2660   1.0000   1
1389.584   0.9140   0.2601   1.0000   1
1389.614   0.8823   0.2571   1.0000   1
1389.644   1.2055   0.2876   1.0000   1
1389.674   1.0094   0.2713   1.0000   1
1389.704   0.9951   0.2693   1.0000   1
1389.734   1.1698   0.2867   1.0000   1
1389.764   0.9771   0.2683   1.0000   1
1389.794   1.1781   0.2870   1.0000   1
1389.824   1.1233   0.2825   1.0000   1
1389.853   0.9188   0.2606   1.0000   1
1389.883   1.0368   0.2734   1.0000   1
1389.913   0.9733   0.2673   1.0000   1
1389.943   0.9543   0.2645   1.0000   1
1389.973   1.2967   0.2991   1.0000   1
1390.003   0.9785   0.2681   1.0000   1
1390.033   0.8648   0.2546   1.0000   1
1390.063   0.9693   0.2674   1.0000   1
1390.093   1.0580   0.2755   1.0000   1
1390.123   1.1076   0.2822   1.0000   1
1390.152   1.2346   0.2939   1.0000   1
1390.182   1.1105   0.2819   1.0000   1
1390.212   0.7213   0.2371   1.0000   1
1390.242   0.9112   0.2595   1.0000   1
1390.272   1.1838   0.2899   1.0000   1
1390.302   1.2161   0.2928   1.0000   1
1390.332   0.9354   0.2638   1.0000   1
1390.362   1.0087   0.2721   1.0000   1
1390.392   0.9039   0.2608   1.0000   1
1390.422   0.9836   0.2694   1.0000   1
1390.451   0.9823   0.2690   1.0000   1
1390.481   1.0332   0.2734   1.0000   1
1390.511   0.8508   0.2540   1.0000   1
1390.541   1.2054   0.2923   1.0000   1
1390.571   1.2693   0.2971   1.0000   1
1390.601   0.8705   0.2567   1.0000   1
1390.631   0.9696   0.2682   1.0000   1
1390.661   0.8500   0.2539   1.0000   1
1390.691   1.1394   0.2858   1.0000   1
1390.721   0.9559   0.2648   1.0000   1
1390.750   1.0531   0.2771   1.0000   1
1390.780   1.0954   0.2801   1.0000   1
1390.810   1.0959   0.2810   1.0000   1
1390.840   0.9275   0.2617   1.0000   1
1390.870   1.0454   0.2760   1.0000   1
1390.900   1.0701   0.2764   1.0000   1
1390.930   0.9733   0.2691   1.0000   1
1390.960   0.9170   0.2623   1.0000   1
1390.990   1.0759   0.2791   1.0000   1
1391.020   1.1050   0.2824   1.0000   1
1391.049   1.0560   0.2781   1.0000   1
1391.079   1.1213   0.2845   1.0000   1
1391.109   1.2316   0.2956   1.0000   1
1391.139   1.2401   0.2962   1.0000   1
1391.169   1.0682   0.2790   1.0000   1
1391.199   1.2417   0.2958   1.0000   1
1391.229   1.4223   0.3146   1.0000   1
1391.259   0.9666   0.2687   1.0000   1
1391.289   0.8771   0.2582   1.0000   1
1391.319   0.9593   0.2676   1.0000   1
1391.348   0.8214   0.2505   1.0000   1
1391.378   0.8011   0.2501   1.0000   1
1391.408   0.8689   0.2570   1.0000   1
1391.438   0.9436   0.2654   1.0000   1
1391.468   0.8558   0.2539   1.0000   1
1391.498   1.0365   0.2759   1.0000   1
1391.528   1.2191   0.2950   1.0000   1
1391.558   1.0079   0.2736   1.0000   1
1391.588   1.0825   0.2819   1.0000   1
1391.618   0.9048   0.2627   1.0000   1
1391.647   0.9824   0.2715   1.0000   1
1391.677   1.0481   0.2778   1.0000   1
1391.707   1.0451   0.2772   1.0000   1
1391.737   0.8637   0.2578   1.0000   1
1391.767   0.7922   0.2504   1.0000   1
1391.797   0.8510   0.2568   1.0000   1
1391.827   0.9322   0.2660   1.0000   1
1391.857   1.1853   0.2930   1.0000   1
1391.887   1.0751   0.2820   1.0000   1
1391.917   0.9955   0.2737   1.0000   1
1391.946   0.9263   0.2612   1.0000   1
1391.976   1.0690   0.2803   1.0000   1
1392.006   0.8586   0.2572   1.0000   1
1392.036   1.0620   0.2790   1.0000   1
1392.066   0.7286   0.2406   1.0000   1
1392.096   1.1203   0.2867   1.0000   1
1392.126   1.1128   0.2857   1.0000   1
1392.156   0.9181   0.2646   1.0000   1
1392.186   1.0941   0.2841   1.0000   1
1392.215   1.0071   0.2748   1.0000   1
1392.245   0.7844   0.2493   1.0000   1
1392.275   0.9730   0.2719   1.0000   1
1392.305   0.8736   0.2602   1.0000   1
1392.335   0.8382   0.2534   1.0000   1
1392.365   1.2042   0.2960   1.0000   1
1392.395   0.9667   0.2710   1.0000   1
1392.425   1.1625   0.2911   1.0000   1
1392.455   0.9103   0.2643   1.0000   1
1392.485   0.9635   0.2681   1.0000   1
1392.514   0.9127   0.2649   1.0000   1
1392.544   1.2669   0.3014   1.0000   1
1392.574   1.2078   0.2951   1.0000   1
1392.604   1.0156   0.2761   1.0000   1
1392.634   0.9708   0.2718   1.0000   1
1392.664   0.9498   0.2690   1.0000   1
1392.694   0.9344   0.2664   1.0000   1
1392.724   0.9999   0.2753   1.0000   1
1392.754   0.7913   0.2502   1.0000   1
1392.784   1.1078   0.2865   1.0000   1
1392.813   0.9892   0.2730   1.0000   1
1392.843   0.9694   0.2724   1.0000   1
1392.873   0.9277   0.2714   1.0000   1
1392.903   1.1108   0.2955   1.0000   1
1392.933   0.7533   0.2532   1.0000   1
1392.963   1.1681   0.3004   1.0000   1
1392.993   1.0696   0.2882   1.0000   1
1393.023   0.7445   0.2363   1.0000   1
1393.053   1.3668   0.3257   1.0000   1
1393.083   1.0805   0.2939   1.0000   1
1393.112   1.0706   0.2948   0.9999   1
1393.142   0.8493   0.2634   0.9999   1
1393.172   1.1482   0.3044   0.9998   1
1393.202   1.0667   0.2925   0.9996   1
1393.232   1.0615   0.2861   0.9991   1
1393.262   1.1420   0.2939   0.9982   1
1393.292   0.8873   0.2642   0.9966   1
1393.322   1.1293   0.2901   0.9936   1
1393.352   1.0573   0.2821   0.9883   1
1393.382   1.0397   0.2801   0.9795   1
1393.411   1.1189   0.2879   0.9655   1
1393.441   1.0746   0.2839   0.9436   1
1393.471   0.9358   0.2674   0.9118   1
1393.501   0.6001   0.2261   0.8679   1
1393.531   1.0263   0.2789   0.8102   1
1393.561   0.7845   0.2501   0.7389   1
1393.591   0.7296   0.2446   0.6566   1
1393.621   0.6402   0.2330   0.5676   1
1393.651   0.3478   0.1851   0.4777   1
1393.681   0.4375   0.2028   0.3931   1
1393.710   0.3647   0.1870   0.3185   1
1393.740   0.2372   0.1650   0.2569   1
1393.770   0.2609   0.1704   0.2101   1
1393.800   0.1259   0.1393   0.1768   1
1393.830   0.1094   0.1291   0.1558   1
1393.860   0.1122   0.1293   0.1462   1
1393.890   0.2061   0.1524   0.1473   1
1393.920   0.0975   0.1274   0.1589   1
1393.950   0.2348   0.1586   0.1818   1
1393.980   0.1969   0.1566   0.2178   1
1394.009   0.4126   0.1983   0.2677   1
1394.039   0.4460   0.2044   0.3315   1
1394.069   0.4976   0.2127   0.4081   1
1394.099   0.4029   0.1970   0.4943   1
1394.129   0.5672   0.2225   0.5845   1
1394.159   0.6505   0.2353   0.6728   1
1394.189   0.5896   0.2271   0.7534   1
1394.219   0.8007   0.2542   0.8220   1
1394.249   1.0811   0.2856   0.8771   1
1394.279   0.9458   0.2701   0.9188   1
1394.308   0.8035   0.2553   0.9483   1
1394.338   0.8038   0.2547   0.9680   1
1394.368   1.1527   0.2931   0.9803   1
1394.398   0.8998   0.2659   0.9867   1
1394.428   0.9386   0.2691   0.9878   1
1394.458   1.0793   0.2852   0.9834   1
1394.488   0.9798   0.2750   0.9727   1
1394.518   0.7494   0.2486   0.9543   1
1394.548   1.0551   0.2842   0.9278   1
1394.578   1.0782   0.2863   0.8946   1
1394.607   0.7284   0.2457   0.8585   1
1394.637   0.8522   0.2597   0.8250   1
1394.667   0.7856   0.2525   0.8004   1
1394.697   0.8912   0.2646   0.7894   1
1394.727   0.7075   0.2424   0.7941   1
1394.757   0.8530   0.2619   0.8143   1
1394.787   0.8814   0.2637   0.8452   1
1394.817   0.7695   0.2483   0.8810   1
1394.847   0.9710   0.2751   0.9161   1
1394.877   0.9262   0.2678   0.9456   1
1394.906   1.0829   0.2875   0.9677   1
1394.936   0.9771   0.2752   0.9826   1
1394.966   1.1891   0.2982   0.9913   1
1394.996   0.8435   0.2592   0.9960   1
1395.026   0.8775   0.2641   0.9983   1
1395.056   0.9115   0.2689   0.9994   1
1395.086   1.1190   0.2917   0.9998   1
1395.116   0.8890   0.2651   0.9999   1
1395.146   0.9093   0.2682   1.0000   1
1395.176   1.2536   0.3049   1.0000   1
1395.205   1.1645   0.2959   1.0000   1
1395.235   1.0530   0.2841   1.0000   1
1395.265   0.8357   0.2599   1.0000   1
1395.295   1.1013   0.2895   1.0000   1
1395.325   1.1314   0.2914   1.0000   1
1395.355   1.1283   0.2924   1.0000   1
1395.385   1.0317   0.2819   1.0000   1
1395.415   0.9430   0.2710   1.0000   1
1395.445   1.0203   0.2804   1.0000   1
1395.475   0.7424   0.2484   1.0000   1
1395.504   0.9610   0.2750   1.0000   1
1395.534   0.9274   0.2721   1.0000   1
1395.564   0.8643   0.2710   1.0000   1
1395.594   1.1479   0.3032   1.0000   1
1395.624   1.0995   0.3015   1.0000   1
1395.654   1.0364   0.2925   1.0000   1
1395.684   0.8528   0.2697   1.0000   1
1395.714   0.9470   0.2809   1.0000   1
1395.744   0.9874   0.2870   1.0000   1
1395.774   1.2076   0.3145   1.0000   1
1395.803   1.1273   0.3031   1.0000   1
1395.833   1.1111   0.3018   1.0000   1
1395.863   1.1917   0.3132   1.0000   1
1395.893   0.9483   0.2837   1.0000   1
1395.923   1.2816   0.3155   1.0000   1
1395.953   0.9422   0.2774   1.0000   1
1395.983   0.9387   0.2733   1.0000   1
1396.013   1.1434   0.2957   1.0000   1
1396.043   1.0113   0.2805   1.0000   1
1396.073   1.0215   0.2830   1.0000   1
1396.102   0.7891   0.2545   1.0000   1
1396.132   0.9530   0.2734   1.0000   1
1396.162   1.0432   0.2843   1.0000   1
1396.192   1.0470   0.2853   1.0000   1
1396.222   1.0274   0.2830   1.0000   1
1396.252   1.0115   0.2819   1.0000   1
1396.282   0.9265   0.2716   1.0000   1
1396.312   0.9391   0.2732   1.0000   1
1396.342   1.1724   0.2945   1.0000   1
1396.371   0.9002   0.2651   1.0000   1
1396.401   1.0652   0.2883   1.0000   1
1396.431   1.0217   0.2834   1.0000   1
1396.461   1.1166   0.2936   1.0000   1
1396.491   1.0631   0.2881   1.0000   1
1396.521   1.1718   0.2994   1.0000   1
1396.551   0.8757   0.2678   1.0000   1
1396.581   0.9980   0.2811   1.0000   1
1396.611   1.0022   0.2786   1.0000   1
1396.641   0.9377   0.2739   1.0000   1
1396.670   1.1968   0.3029   1.0000   1
1396.700   1.0685   0.2888   1.0000   1
1396.730   0.9419   0.2733   1.0000   1
1396.760   1.1809   0.2985   1.0000   1
1396.790   1.1680   0.2988   1.0000   1
1396.820   0.9341   0.2747   1.0000   1
1396.850   0.9560   0.2768   1.0000   1
1396.880   1.3445   0.3174   1.0000   1
1396.910   0.9198   0.2717   1.0000   1
1396.940   0.7653   0.2537   1.0000   1
1396.969   1.1359   0.2946   1.0000   1
1396.999   1.0644   0.2889   1.0000   1
1397.029   1.1497   0.2983   1.0000   1
1397.059   0.9081   0.2672   1.0000   1
1397.089   1.1179   0.2949   1.0000   1
1397.119   1.0306   0.2853   1.0000   1
1397.149   1.0454   0.2870   1.0000   1
1397.179   1.1245   0.2964   1.0000   1
1397.209   1.1348   0.2969   1.0000   1
1397.239   1.0227   0.2846   1.0000   1
1397.268   0.9696   0.2788   1.0000   1
1397.298   1.1168   0.2956   1.0000   1
1397.328   1.1440   0.2981   1.0000   1
1397.358   0.9161   0.2718   1.0000   1
1397.388   0.7758   0.2562   1.0000   1
1397.418   1.0228   0.2857   1.0000   1
1397.448   0.9489   0.2775   1.0000   1
1397.478   1.0385   0.2869   1.0000   1
1397.508   0.8269   0.2621   1.0000   1
1397.538   1.0105   0.2843   1.0000   1
1397.567   1.0325   0.2868   1.0000   1
1397.597   0.7997   0.2571   1.0000   1
1397.627   1.1299   0.2960   1.0000   1
1397.657   0.8686   0.2684   1.0000   1
1397.687   1.0579   0.2895   1.0000   1
1397.717   0.9268   0.2719   1.0000   1
1397.747   0.8571   0.2663   1.0000   1
1397.777   1.2836   0.3135   1.0000   1
1397.807   1.1857   0.3007   1.0000   1
1397.837   1.0562   0.2882   1.0000   1
1397.866   1.2937   0.3124   1.0000   1
1397.896   1.0511   0.2898   1.0000   1
1397.926   0.9587   0.2782   1.0000   1
1397.956   1.0850   0.2935   1.0000   1
1397.986   1.1412   0.2992   1.0000   1
1398.016   0.9754   0.2802   1.0000   1
1398.046   0.8705   0.2684   1.0000   1
1398.076   1.1487   0.2997   1.0000   1
1398.106   1.0294   0.2880   1.0000   1
1398.136   0.9318   0.2769   1.0000   1
1398.165   0.8062   0.2587   1.0000   1
1398.195   0.9143   0.2745   1.0000   1
1398.225   0.8646   0.2688   1.0000   1
1398.255   0.9624   0.2805   1.0000   1
1398.285   0.9351   0.2759   1.0000   1
1398.315   0.9527   0.2744   1.0000   1
1398.345   0.8038   0.2598   1.0000   1
1398.375   0.9096   0.2729   1.0000   1
