# Best-fit normalized data and profile from VoigtFit
# column 1 : Wavelength
# column 2 : Normalized flux
# column 3 : Normalized error
# column 4 : Best-fit profile
# column 5 : Pixel mask, 1=included, 0=excluded
1202.484   0.8325   0.2755   1.0000   1
1202.514   1.0702   0.3046   1.0000   1
1202.543   0.8711   0.2810   1.0000   1
1202.573   0.9013   0.2844   1.0000   1
1202.603   0.9140   0.2875   1.0000   1
1202.633   1.2150   0.3207   1.0000   1
1202.663   0.8700   0.2827   1.0000   1
1202.693   0.8713   0.2821   1.0000   1
1202.723   1.1994   0.3202   1.0000   1
1202.753   1.1870   0.3193   1.0000   1
1202.783   1.1048   0.3109   1.0000   1
1202.813   0.9973   0.2974   1.0000   1
1202.842   0.9710   0.2968   1.0000   1
1202.872   1.0243   0.3036   1.0000   1
1202.902   1.0360   0.3029   1.0000   1
1202.932   0.9630   0.2963   1.0000   1
1202.962   0.8519   0.2824   1.0000   1
1202.992   1.0320   0.3053   1.0000   1
1203.022   1.0249   0.3051   1.0000   1
1203.052   0.8097   0.2796   1.0000   1
1203.082   1.0822   0.3129   1.0000   1
1203.111   0.7958   0.2760   1.0000   1
1203.141   1.0253   0.3047   1.0000   1
1203.171   1.1971   0.3251   1.0000   1
1203.201   0.7195   0.2688   1.0000   1
1203.231   0.7736   0.2754   1.0000   1
1203.261   1.1389   0.3208   1.0000   1
1203.291   0.9840   0.3037   1.0000   1
1203.321   1.0205   0.3079   1.0000   1
1203.351   0.8013   0.2817   1.0000   1
1203.380   0.9769   0.3030   1.0000   1
1203.410   1.1500   0.3236   1.0000   1
1203.440   0.9204   0.2977   1.0000   1
1203.470   0.6526   0.2618   1.0000   1
1203.500   1.0520   0.3148   1.0000   1
1203.530   0.9988   0.3088   1.0000   1
1203.560   0.7717   0.2803   1.0000   1
1203.590   1.0975   0.3166   1.0000   1
1203.620   1.1436   0.3253   1.0000   1
1203.649   1.0165   0.3120   1.0000   1
1203.679   0.9995   0.3107   1.0000   1
1203.709   0.9255   0.3021   0.9999   1
1203.739   0.8293   0.2895   0.9999   1
1203.769   1.0759   0.3156   0.9999   1
1203.799   0.9608   0.3063   0.9999   1
1203.829   0.8609   0.2947   0.9999   1
1203.859   1.3410   0.3504   0.9999   1
1203.889   1.1158   0.3262   0.9999   1
1203.918   0.9531   0.3038   0.9999   1
1203.948   1.1286   0.3273   0.9999   1
1203.978   0.9952   0.3130   0.9999   1
1204.008   0.9689   0.3098   0.9999   1
1204.038   1.1041   0.3268   0.9999   1
1204.068   0.9840   0.3138   0.9999   1
1204.098   0.7843   0.2842   0.9999   1
1204.128   0.9865   0.3139   0.9999   1
1204.158   1.0619   0.3242   0.9999   1
1204.188   0.7840   0.2863   0.9999   1
1204.217   0.8690   0.3013   0.9999   1
1204.247   0.8820   0.3031   0.9999   1
1204.277   1.1385   0.3345   0.9999   1
1204.307   1.2633   0.3494   0.9999   1
1204.337   1.0035   0.3148   0.9999   1
1204.367   1.0146   0.3192   0.9999   1
1204.397   0.9951   0.3172   0.9999   1
1204.427   1.1383   0.3345   0.9999   1
1204.457   1.1217   0.3355   0.9999   1
1204.486   1.1230   0.3368   0.9999   1
1204.516   1.0936   0.3326   0.9999   1
1204.546   1.0368   0.3255   0.9999   1
1204.576   0.9566   0.3155   0.9999   1
1204.606   0.9841   0.3217   0.9999   1
1204.636   1.0524   0.3284   0.9999   1
1204.666   0.9137   0.3121   0.9999   1
1204.696   1.0888   0.3338   0.9999   1
1204.726   0.8042   0.2971   0.9999   1
1204.755   1.1910   0.3478   0.9999   1
1204.785   0.9166   0.3129   0.9999   1
1204.815   1.0224   0.3291   0.9999   1
1204.845   1.0181   0.3276   0.9999   1
1204.875   0.9220   0.3172   0.9999   1
1204.905   1.0056   0.3278   0.9999   1
1204.935   1.0303   0.3320   0.9999   1
1204.965   1.0600   0.3358   0.9998   1
1204.995   0.7148   0.2902   0.9998   1
1205.024   1.1315   0.3452   0.9998   1
1205.054   0.9451   0.3208   0.9998   1
1205.084   1.1472   0.3487   0.9998   1
1205.114   1.2511   0.3581   0.9998   1
1205.144   1.3132   0.3640   0.9998   1
1205.174   0.9373   0.3241   0.9998   1
1205.204   1.1071   0.3458   0.9998   1
1205.234   1.0423   0.3387   0.9998   1
1205.264   1.1737   0.3537   0.9998   1
1205.293   1.1977   0.3569   0.9998   1
1205.323   1.2477   0.3609   0.9998   1
1205.353   0.9606   0.3271   0.9997   1
1205.383   1.1009   0.3474   0.9997   1
1205.413   1.0353   0.3404   0.9997   1
1205.443   1.1511   0.3553   0.9997   1
1205.473   1.1019   0.3482   0.9997   1
1205.503   1.1788   0.3588   0.9997   1
1205.533   1.0338   0.3413   0.9997   1
1205.563   1.0237   0.3393   0.9996   1
1205.592   1.0033   0.3381   0.9996   1
1205.622   0.9019   0.3225   0.9996   1
1205.652   0.9962   0.3365   0.9996   1
1205.682   1.1039   0.3483   0.9995   1
1205.712   1.5143   0.3986   0.9995   1
1205.742   1.0454   0.3454   0.9995   1
1205.772   1.2464   0.3703   0.9994   1
1205.802   1.3421   0.3823   0.9994   1
1205.832   1.0475   0.3469   0.9994   1
1205.861   1.2381   0.3721   0.9993   1
1205.891   0.8409   0.3185   0.9992   1
1205.921   1.1669   0.3633   0.9992   1
1205.951   1.0820   0.3549   0.9991   1
1205.981   1.3045   0.3805   0.9989   1
1206.011   1.0519   0.3523   0.9984   1
1206.041   0.9469   0.3401   0.9975   1
1206.071   0.9255   0.3352   0.9955   1
1206.101   1.1319   0.3643   0.9911   1
1206.130   1.1050   0.3611   0.9816   1
1206.160   0.7581   0.3145   0.9616   1
1206.190   0.8695   0.3110   0.9234   1
1206.220   0.8957   0.3325   0.8561   1
1206.250   0.7397   0.3137   0.7492   1
1206.280   0.7174   0.3104   0.5997   1
1206.310   0.5176   0.2745   0.4217   1
1206.340   0.1758   0.1876   0.2506   1
1206.370   0.0961   0.1753   0.1202   1
1206.399   0.0349   0.1484   0.0444   1
1206.429   0.0670   0.1613   0.0119   1
1206.459   0.0184   0.1440   0.0024   1
1206.489   0.0683   0.1559   0.0003   1
1206.519   0.0185   0.1447   0.0000   1
1206.549   0.0496   0.1604   0.0000   1
1206.579   0.0431   0.1528   0.0000   1
1206.609   0.0364   0.1510   0.0000   1
1206.639   0.0171   0.1464   0.0000   1
1206.668   0.0158   0.1467   0.0000   1
1206.698   -0.0096   0.1404   0.0000   1
1206.728   0.0153   0.1482   0.0000   1
1206.758   0.0215   0.1543   0.0000   1
1206.788   0.0154   0.1491   0.0000   1
1206.818   0.0603   0.1677   0.0000   1
1206.848   0.0157   0.1492   0.0000   1
1206.878   0.0413   0.1561   0.0000   1
1206.908   0.0414   0.1554   0.0002   1
1206.938   0.0742   0.1770   0.0015   1
1206.967   0.1386   0.1961   0.0081   1
1206.997   0.0156   0.1512   0.0312   1
1207.027   0.1780   0.2062   0.0876   1
1207.057   0.1455   0.2012   0.1875   1
1207.087   0.2965   0.2440   0.3168   1
1207.117   0.4290   0.2566   0.4361   1
1207.147   0.4953   0.2881   0.5102   1
1207.177   0.5688   0.3027   0.5269   1
1207.207   0.4633   0.2820   0.4963   1
1207.236   0.4782   0.2860   0.4393   1
1207.266   0.4324   0.2632   0.3770   1
1207.296   0.2006   0.2072   0.3226   1
1207.326   0.3283   0.2546   0.2827   1
1207.356   0.3768   0.2646   0.2599   1
1207.386   0.5191   0.2932   0.2550   1
1207.416   0.2018   0.2091   0.2682   1
1207.446   0.2018   0.2298   0.2997   1
1207.476   0.2093   0.2222   0.3497   1
1207.505   0.4620   0.2885   0.4173   1
1207.535   0.7090   0.3334   0.4997   1
1207.565   0.6089   0.3138   0.5910   1
1207.595   0.8457   0.3503   0.6830   1
1207.625   0.6150   0.3184   0.7680   1
1207.655   1.0752   0.3971   0.8400   1
1207.685   0.8605   0.3685   0.8961   1
1207.715   0.7802   0.3506   0.9360   1
1207.745   0.8913   0.3781   0.9626   1
1207.774   0.8093   0.3654   0.9793   1
1207.804   1.0258   0.3972   0.9890   1
1207.834   0.8211   0.3623   0.9944   1
1207.864   0.8278   0.3624   0.9971   1
1207.894   1.2704   0.4388   0.9985   1
1207.924   1.0038   0.3977   0.9992   1
1207.954   1.1131   0.4086   0.9995   1
1207.984   1.0097   0.4039   0.9996   1
1208.014   0.9556   0.3914   0.9997   1
1208.043   0.7858   0.3683   0.9997   1
1208.073   0.9820   0.3957   0.9997   1
1208.103   0.8269   0.3720   0.9997   1
1208.133   1.0011   0.3934   0.9997   1
1208.163   1.1315   0.4154   0.9998   1
1208.193   1.2111   0.4238   0.9998   1
1208.223   1.0993   0.4057   0.9998   1
1208.253   1.0205   0.3981   0.9998   1
1208.283   1.0995   0.4099   0.9998   1
1208.312   1.1741   0.4164   0.9998   1
1208.342   1.3404   0.4435   0.9998   1
1208.372   1.2190   0.4288   0.9998   1
1208.402   1.0088   0.3996   0.9998   1
1208.432   1.1915   0.4234   0.9998   1
1208.462   1.2612   0.4354   0.9998   1
1208.492   1.3417   0.4470   0.9998   1
1208.522   1.2754   0.4399   0.9999   1
1208.552   0.9782   0.3999   0.9999   1
1208.582   1.3237   0.4462   0.9999   1
1208.611   1.0051   0.4045   0.9999   1
1208.641   1.0339   0.4075   0.9999   1
1208.671   0.9601   0.4005   0.9999   1
1208.701   1.2898   0.4465   0.9999   1
1208.731   0.8880   0.3904   0.9999   1
1208.761   0.7133   0.3628   0.9999   1
1208.791   0.8196   0.3763   0.9999   1
1208.821   1.3704   0.4619   0.9999   1
1208.851   1.4069   0.4674   0.9999   1
1208.880   0.9046   0.3959   0.9999   1
1208.910   1.1768   0.4362   0.9999   1
1208.940   0.9922   0.4146   0.9999   1
1208.970   1.2071   0.4419   0.9999   1
1209.000   1.0944   0.4265   0.9999   1
1209.030   0.9687   0.4117   0.9999   1
1209.060   0.8774   0.3886   0.9999   1
1209.090   1.0474   0.4222   0.9999   1
1209.120   0.9965   0.4149   0.9999   1
1209.149   0.8864   0.4034   0.9999   1
1209.179   1.1066   0.4382   0.9999   1
1209.209   1.0290   0.4281   0.9999   1
1209.239   1.1398   0.4454   0.9999   1
1209.269   1.0540   0.4335   0.9999   1
1209.299   1.0142   0.4294   0.9999   1
1209.329   0.7275   0.3626   0.9999   1
1209.359   1.0070   0.4269   0.9999   1
1209.389   0.6400   0.3694   0.9999   1
1209.418   0.9446   0.4237   0.9999   1
1209.448   0.7618   0.3890   0.9999   1
1209.478   1.0326   0.4243   0.9999   1
1209.508   0.5410   0.3512   0.9999   1
1209.538   1.0300   0.4333   0.9999   1
1209.568   1.3779   0.4855   0.9999   1
1209.598   0.8479   0.4081   0.9999   1
1209.628   0.7976   0.4050   0.9999   1
1209.658   0.9152   0.4257   0.9999   1
1209.688   0.8445   0.4147   0.9999   1
1209.717   1.1553   0.4613   0.9999   1
1209.747   1.3092   0.4820   0.9999   1
1209.777   0.8664   0.4232   1.0000   1
1209.807   0.8954   0.4283   1.0000   1
1209.837   0.8348   0.4146   1.0000   1
1209.867   0.8160   0.4159   1.0000   1
1209.897   1.0793   0.4577   1.0000   1
1209.927   0.7485   0.4070   1.0000   1
1209.957   1.0331   0.4543   1.0000   1
1209.986   1.1637   0.4702   1.0000   1
1210.016   0.9242   0.4399   1.0000   1
1210.046   1.2135   0.4817   1.0000   1
1210.076   0.9472   0.4457   1.0000   1
1210.106   1.1307   0.4621   1.0000   1
1210.136   0.9611   0.4496   1.0000   1
1210.166   1.2796   0.4994   1.0000   1
1210.196   0.9678   0.4548   1.0000   1
1210.226   0.8459   0.4334   1.0000   1
1210.255   1.1671   0.4852   1.0000   1
1210.285   1.0640   0.4717   1.0000   1
1210.315   0.8753   0.4475   1.0000   1
1210.345   0.8880   0.4456   1.0000   1
1210.375   0.9606   0.4713   1.0000   1
1210.405   0.7100   0.4258   1.0000   1
1210.435   0.8175   0.4421   1.0000   1
1210.465   0.6522   0.4227   1.0000   1
1210.495   0.8741   0.4665   1.0000   1
1210.524   0.7354   0.4311   1.0000   1
