# Best-fit normalized data and profile from VoigtFit
# column 1 : Wavelength
# column 2 : Normalized flux
# column 3 : Normalized error
# column 4 : Best-fit profile
# column 5 : Pixel mask, 1=included, 0=excluded
1542.013   1.1113   0.1764   1.0000   1
1542.049   1.1380   0.1784   1.0000   1
1542.086   1.1177   0.1762   1.0000   1
1542.123   0.9263   0.1612   1.0000   1
1542.160   1.0773   0.1733   1.0000   1
1542.196   1.0546   0.1730   1.0000   1
1542.233   1.0463   0.1724   1.0000   1
1542.270   1.0865   0.1754   1.0000   1
1542.306   0.9839   0.1673   1.0000   1
1542.343   1.0542   0.1742   1.0000   1
1542.380   1.0276   0.1696   1.0000   1
1542.416   0.9269   0.1651   1.0000   1
1542.453   0.9524   0.1632   1.0000   1
1542.490   0.9893   0.1668   1.0000   1
1542.527   0.9354   0.1632   1.0000   1
1542.563   0.9750   0.1669   1.0000   1
1542.600   0.9742   0.1676   1.0000   1
1542.637   0.9911   0.1673   1.0000   1
1542.673   1.1009   0.1765   1.0000   1
1542.710   1.0490   0.1709   1.0000   1
1542.747   1.0994   0.1759   1.0000   1
1542.783   1.1348   0.1786   1.0000   1
1542.820   1.0047   0.1671   1.0000   1
1542.857   0.8982   0.1626   1.0000   1
1542.894   0.8892   0.1606   1.0000   1
1542.930   0.9324   0.1597   1.0000   1
1542.967   1.0410   0.1712   1.0000   1
1543.004   1.1146   0.1775   1.0000   1
1543.040   1.0280   0.1726   1.0000   1
1543.077   0.7879   0.1542   1.0000   1
1543.114   0.9407   0.1654   1.0000   1
1543.151   0.9517   0.1661   1.0000   1
1543.187   1.0191   0.1718   1.0000   1
1543.224   1.0979   0.1777   1.0000   1
1543.261   0.9678   0.1672   1.0000   1
1543.297   1.0125   0.1712   1.0000   1
1543.334   0.9617   0.1660   1.0000   1
1543.371   0.8443   0.1578   1.0000   1
1543.407   0.9990   0.1690   1.0000   1
1543.444   0.9481   0.1648   1.0000   1
1543.481   0.9740   0.1671   1.0000   1
1543.518   0.8493   0.1566   1.0000   1
1543.554   0.7077   0.1448   1.0000   1
1543.591   0.9767   0.1682   1.0000   1
1543.628   0.8466   0.1584   1.0000   1
1543.664   0.9477   0.1666   1.0000   1
1543.701   0.9179   0.1611   1.0000   1
1543.738   0.7435   0.1489   1.0000   1
1543.774   0.7743   0.1526   1.0000   1
1543.811   0.8617   0.1585   1.0000   1
1543.848   0.7998   0.1572   1.0000   1
1543.885   1.0246   0.1741   1.0000   1
1543.921   0.8613   0.1606   1.0000   1
1543.958   0.9454   0.1673   1.0000   1
1543.995   0.8534   0.1623   1.0000   1
1544.031   0.9270   0.1663   1.0000   1
1544.068   0.9265   0.1687   1.0000   1
1544.105   1.0048   0.1763   1.0000   1
1544.142   0.8677   0.1622   1.0000   1
1544.178   1.1247   0.1811   1.0000   1
1544.215   0.9502   0.1708   1.0000   1
1544.252   0.9593   0.1689   1.0000   1
1544.288   1.0367   0.1742   1.0000   1
1544.325   1.0651   0.1759   1.0000   1
1544.362   1.1257   0.1776   1.0000   1
1544.398   1.1435   0.1810   1.0000   1
1544.435   1.0595   0.1757   1.0000   1
1544.472   1.0823   0.1771   1.0000   1
1544.509   1.0829   0.1758   1.0000   1
1544.545   0.8997   0.1635   1.0000   1
1544.582   1.0641   0.1762   1.0000   1
1544.619   1.1317   0.1782   1.0000   1
1544.655   0.9676   0.1670   1.0000   1
1544.692   0.9718   0.1673   1.0000   1
1544.729   1.1547   0.1827   1.0000   1
1544.765   1.1457   0.1820   1.0000   1
1544.802   1.0609   0.1758   1.0000   1
1544.839   1.0006   0.1711   1.0000   1
1544.876   1.0248   0.1715   1.0000   1
1544.912   1.2551   0.1898   1.0000   1
1544.949   1.0023   0.1666   1.0000   1
1544.986   1.0810   0.1773   1.0000   1
1545.022   1.0656   0.1757   1.0000   1
1545.059   1.2346   0.1857   1.0000   1
1545.096   1.0980   0.1777   1.0000   1
1545.132   1.0716   0.1754   1.0000   1
1545.169   1.0206   0.1708   1.0000   1
1545.206   1.0678   0.1749   1.0000   1
1545.243   1.0917   0.1749   1.0000   1
1545.279   1.0969   0.1769   1.0000   1
1545.316   1.0988   0.1806   1.0000   1
1545.353   1.0951   0.1780   1.0000   1
1545.389   1.0630   0.1764   1.0000   1
1545.426   1.1066   0.1798   1.0000   1
1545.463   1.0368   0.1725   1.0000   1
1545.500   0.9956   0.1722   1.0000   1
1545.536   1.0539   0.1752   1.0000   1
1545.573   1.0625   0.1762   1.0000   1
1545.610   0.9946   0.1706   1.0000   1
1545.646   1.0216   0.1733   1.0000   1
1545.683   0.9122   0.1627   1.0000   1
1545.720   0.9622   0.1701   1.0000   1
1545.756   1.0062   0.1724   1.0000   1
1545.793   0.9606   0.1681   1.0000   1
1545.830   0.9735   0.1712   1.0000   1
1545.867   1.0055   0.1712   1.0000   1
1545.903   0.8803   0.1615   1.0000   1
1545.940   1.0103   0.1733   1.0000   1
1545.977   1.2274   0.1847   1.0000   1
1546.013   1.0995   0.1797   0.9999   1
1546.050   1.0331   0.1754   0.9998   1
1546.087   1.0601   0.1771   0.9996   1
1546.123   1.1093   0.1782   0.9991   1
1546.160   1.2268   0.1873   0.9983   1
1546.197   1.3054   0.1927   0.9967   1
1546.234   1.1522   0.1820   0.9939   1
1546.270   1.1639   0.1834   0.9893   1
1546.307   1.2014   0.1847   0.9818   1
1546.344   1.1305   0.1821   0.9705   1
1546.380   1.0342   0.1744   0.9541   1
1546.417   1.0723   0.1775   0.9315   1
1546.454   0.9064   0.1671   0.9021   1
1546.491   0.9077   0.1635   0.8660   1
1546.527   0.8306   0.1591   0.8244   1
1546.564   1.0736   0.1750   0.7792   1
1546.601   0.8908   0.1622   0.7334   1
1546.637   0.6729   0.1445   0.6903   1
1546.674   0.6392   0.1405   0.6531   1
1546.711   0.4696   0.1234   0.6243   1
1546.747   0.5063   0.1237   0.6065   1
1546.784   0.5212   0.1274   0.6002   1
1546.821   0.5950   0.1372   0.6062   1
1546.858   0.6416   0.1443   0.6240   1
1546.894   0.7760   0.1555   0.6523   1
1546.931   0.6960   0.1454   0.6895   1
1546.968   0.9026   0.1639   0.7324   1
1547.004   0.8876   0.1636   0.7782   1
1547.041   0.9666   0.1714   0.8235   1
1547.078   0.8840   0.1654   0.8652   1
1547.114   0.8158   0.1574   0.9012   1
1547.151   1.0037   0.1763   0.9306   1
1547.188   0.9125   0.1689   0.9528   1
1547.225   0.9235   0.1676   0.9687   1
1547.261   1.0455   0.1781   0.9789   1
1547.298   0.8555   0.1619   0.9844   1
1547.335   0.9650   0.1721   0.9860   1
1547.371   1.1397   0.1853   0.9838   1
1547.408   1.1119   0.1823   0.9780   1
1547.445   1.0659   0.1796   0.9680   1
1547.482   0.9966   0.1709   0.9532   1
1547.518   1.0745   0.1797   0.9328   1
1547.555   0.9761   0.1733   0.9057   1
1547.592   0.7742   0.1538   0.8710   1
1547.628   0.7186   0.1521   0.8251   1
1547.665   0.8331   0.1616   0.7622   1
1547.702   0.6574   0.1461   0.6734   1
1547.738   0.5720   0.1370   0.5638   1
1547.775   0.4868   0.1286   0.4601   1
1547.812   0.4145   0.1191   0.3961   1
1547.849   0.3662   0.1103   0.3805   1
1547.885   0.3436   0.1110   0.3966   1
1547.922   0.3464   0.1111   0.4150   1
1547.959   0.4678   0.1250   0.4222   1
1547.995   0.4939   0.1253   0.4218   1
1548.032   0.4270   0.1166   0.4230   1
1548.069   0.3559   0.1064   0.4318   1
1548.105   0.3516   0.1129   0.4497   1
1548.142   0.3988   0.1146   0.4769   1
1548.179   0.5311   0.1323   0.5129   1
1548.216   0.6636   0.1449   0.5563   1
1548.252   0.7051   0.1490   0.6058   1
1548.289   0.8098   0.1582   0.6587   1
1548.326   0.6946   0.1463   0.7128   1
1548.362   0.6845   0.1511   0.7653   1
1548.399   0.7774   0.1576   0.8141   1
1548.436   0.7324   0.1471   0.8571   1
1548.473   0.8175   0.1590   0.8937   1
1548.509   0.8945   0.1672   0.9232   1
1548.546   0.9104   0.1672   0.9463   1
1548.583   1.0955   0.1822   0.9635   1
1548.619   1.1410   0.1854   0.9758   1
1548.656   0.9892   0.1759   0.9844   1
1548.693   1.0867   0.1827   0.9900   1
1548.729   0.9648   0.1719   0.9935   1
1548.766   1.0066   0.1746   0.9952   1
1548.803   0.8938   0.1662   0.9955   1
1548.840   0.9192   0.1659   0.9945   1
1548.876   0.9711   0.1727   0.9917   1
1548.913   0.9281   0.1697   0.9871   1
1548.950   0.9010   0.1670   0.9798   1
1548.986   0.8143   0.1605   0.9694   1
1549.023   0.7739   0.1521   0.9554   1
1549.060   0.7356   0.1531   0.9376   1
1549.096   0.7033   0.1474   0.9161   1
1549.133   0.7960   0.1607   0.8915   1
1549.170   0.8279   0.1624   0.8654   1
1549.207   0.7642   0.1560   0.8394   1
1549.243   1.0362   0.1786   0.8156   1
1549.280   0.9381   0.1690   0.7959   1
1549.317   0.7996   0.1578   0.7821   1
1549.353   0.7246   0.1496   0.7753   1
1549.390   0.8806   0.1603   0.7764   1
1549.427   0.8316   0.1569   0.7849   1
1549.463   1.0082   0.1720   0.8003   1
1549.500   0.7215   0.1481   0.8213   1
1549.537   0.8722   0.1659   0.8458   1
1549.574   0.7886   0.1581   0.8720   1
1549.610   0.7494   0.1530   0.8979   1
1549.647   0.7694   0.1592   0.9217   1
1549.684   0.7665   0.1568   0.9423   1
1549.720   0.8098   0.1599   0.9592   1
1549.757   0.9008   0.1695   0.9721   1
1549.794   0.9120   0.1713   0.9815   1
1549.831   0.7244   0.1491   0.9877   1
1549.867   0.8863   0.1679   0.9914   1
1549.904   0.7885   0.1604   0.9929   1
1549.941   1.0510   0.1807   0.9925   1
1549.977   1.0859   0.1801   0.9903   1
1550.014   0.8731   0.1623   0.9861   1
1550.051   0.9501   0.1740   0.9796   1
1550.087   0.9140   0.1671   0.9703   1
1550.124   0.9986   0.1751   0.9577   1
1550.161   0.9412   0.1734   0.9411   1
1550.198   0.8710   0.1655   0.9190   1
1550.234   0.8375   0.1611   0.8883   1
1550.271   0.8948   0.1694   0.8424   1
1550.308   0.7609   0.1571   0.7777   1
1550.344   0.6360   0.1461   0.7032   1
1550.381   0.6255   0.1434   0.6435   1
1550.418   0.6978   0.1500   0.6174   1
1550.454   0.5951   0.1373   0.6229   1
1550.491   0.7597   0.1569   0.6390   1
1550.528   0.7971   0.1611   0.6487   1
1550.565   0.7432   0.1553   0.6499   1
1550.601   0.6291   0.1439   0.6496   1
1550.638   0.7914   0.1595   0.6536   1
1550.675   0.6239   0.1457   0.6640   1
1550.711   0.5913   0.1371   0.6811   1
1550.748   0.7189   0.1520   0.7043   1
1550.785   0.8373   0.1637   0.7322   1
1550.822   0.8117   0.1634   0.7636   1
1550.858   0.7912   0.1614   0.7966   1
1550.895   0.9417   0.1708   0.8298   1
1550.932   0.6953   0.1511   0.8614   1
1550.968   0.9353   0.1691   0.8904   1
1551.005   1.0560   0.1823   0.9157   1
1551.042   0.9827   0.1775   0.9371   1
1551.078   0.8517   0.1668   0.9544   1
1551.115   1.0377   0.1803   0.9678   1
1551.152   1.0528   0.1800   0.9780   1
1551.189   0.9462   0.1704   0.9853   1
1551.225   1.1646   0.1867   0.9905   1
1551.262   1.0760   0.1833   0.9940   1
1551.299   0.8961   0.1684   0.9963   1
1551.335   1.0139   0.1792   0.9978   1
1551.372   0.9563   0.1727   0.9987   1
1551.409   1.1057   0.1883   0.9993   1
1551.445   1.2147   0.1942   0.9996   1
1551.482   0.9549   0.1773   0.9998   1
1551.519   1.0414   0.1846   0.9999   1
1551.556   1.0132   0.1805   0.9999   1
1551.592   0.9847   0.1767   1.0000   1
1551.629   1.0241   0.1823   1.0000   1
1551.666   0.8739   0.1664   1.0000   1
1551.702   1.1764   0.1938   1.0000   1
1551.739   0.9544   0.1751   1.0000   1
1551.776   1.1957   0.1943   1.0000   1
1551.813   1.0440   0.1825   1.0000   1
1551.849   1.1591   0.1916   1.0000   1
1551.886   1.1563   0.1899   1.0000   1
1551.923   1.0309   0.1812   1.0000   1
1551.959   1.0658   0.1844   1.0000   1
1551.996   1.0734   0.1862   1.0000   1
1552.033   1.0573   0.1845   1.0000   1
1552.069   1.1288   0.1891   1.0000   1
1552.106   1.0376   0.1804   1.0000   1
1552.143   1.0935   0.1864   1.0000   1
1552.180   1.0941   0.1864   1.0000   1
1552.216   1.1608   0.1906   1.0000   1
1552.253   1.0010   0.1785   1.0000   1
1552.290   1.0500   0.1844   1.0000   1
1552.326   0.9298   0.1754   1.0000   1
1552.363   1.0129   0.1797   1.0000   1
1552.400   1.0918   0.1863   1.0000   1
1552.436   0.9158   0.1710   1.0000   1
1552.473   1.0164   0.1760   1.0000   1
1552.510   1.0368   0.1823   1.0000   1
1552.547   1.0506   0.1823   1.0000   1
1552.583   1.0498   0.1810   1.0000   1
1552.620   1.1648   0.1904   1.0000   1
1552.657   1.0064   0.1776   1.0000   1
1552.693   1.1371   0.1884   1.0000   1
1552.730   0.9754   0.1755   1.0000   1
1552.767   1.0689   0.1843   1.0000   1
1552.804   1.0897   0.1868   1.0000   1
1552.840   1.1574   0.1896   1.0000   1
1552.877   1.0298   0.1816   1.0000   1
1552.914   1.1509   0.1894   1.0000   1
1552.950   1.0740   0.1828   1.0000   1
1552.987   0.9641   0.1741   1.0000   1
1553.024   0.9493   0.1731   1.0000   1
1553.060   1.1279   0.1910   1.0000   1
1553.097   1.0347   0.1805   1.0000   1
1553.134   1.0630   0.1868   1.0000   1
1553.171   0.8112   0.1627   1.0000   1
1553.207   0.7824   0.1617   1.0000   1
1553.244   0.9352   0.1747   1.0000   1
1553.281   0.9064   0.1720   1.0000   1
1553.317   1.1196   0.1902   1.0000   1
1553.354   0.9030   0.1689   1.0000   1
1553.391   0.9515   0.1773   1.0000   1
1553.427   0.9535   0.1753   1.0000   1
1553.464   0.8983   0.1694   1.0000   1
1553.501   1.0266   0.1852   1.0000   1
1553.538   1.0759   0.1866   1.0000   1
1553.574   1.2513   0.1993   1.0000   1
1553.611   1.0175   0.1818   1.0000   1
1553.648   1.0033   0.1808   1.0000   1
1553.684   0.9035   0.1692   1.0000   1
1553.721   0.7137   0.1535   1.0000   1
1553.758   0.7500   0.1588   1.0000   1
1553.794   0.7555   0.1574   1.0000   1
1553.831   0.7602   0.1578   1.0000   1
1553.868   0.8237   0.1659   1.0000   1
1553.905   0.8745   0.1705   1.0000   1
1553.941   1.0527   0.1843   1.0000   1
1553.978   1.1500   0.1907   1.0000   1
1554.015   1.0859   0.1876   1.0000   1
1554.051   1.1889   0.1957   1.0000   1
1554.088   1.0357   0.1845   1.0000   1
1554.125   1.0444   0.1824   1.0000   1
1554.162   0.8224   0.1641   1.0000   1
1554.198   0.9357   0.1783   1.0000   1
1554.235   0.9606   0.1797   1.0000   1
1554.272   1.1081   0.2753   1.0000   1
1554.308   1.2575   0.2196   1.0000   1
1554.345   1.1196   0.1939   1.0000   1
1554.382   0.9742   0.1809   1.0000   1
1554.418   1.0340   0.1870   1.0000   1
1554.455   1.1712   0.2018   1.0000   1
1554.492   0.9156   0.1772   1.0000   1
1554.529   0.8219   0.1716   1.0000   1
1554.565   1.0972   0.1939   1.0000   1
1554.602   0.9162   0.1759   1.0000   1
1554.639   0.9203   0.2508   1.0000   1
1554.675   0.7732   0.1604   1.0000   1
1554.712   0.8872   0.1739   1.0000   1
1554.749   0.8581   0.1708   1.0000   1
1554.785   0.7868   0.1602   1.0000   1
1554.822   0.9660   0.1800   1.0000   1
1554.859   0.8728   0.1734   1.0000   1
1554.896   0.8607   0.1727   1.0000   1
1554.932   0.9911   0.1780   1.0000   1
1554.969   1.0473   0.1855   1.0000   1
1555.006   0.9502   0.1757   1.0000   1
1555.042   0.9582   0.1792   1.0000   1
1555.079   0.9591   0.1786   1.0000   1
1555.116   1.0639   0.1843   1.0000   1
1555.153   1.1744   0.1950   1.0000   1
1555.189   1.0187   0.1837   1.0000   1
1555.226   0.8497   0.1709   1.0000   1
1555.263   1.0333   0.1848   1.0000   1
1555.299   1.1223   0.1902   1.0000   1
1555.336   1.1247   0.1924   1.0000   1
1555.373   0.9464   0.1778   1.0000   1
1555.409   0.8000   0.1623   1.0000   1
1555.446   0.8875   0.1744   1.0000   1
1555.483   0.8835   0.1680   1.0000   1
1555.520   1.1854   0.1968   1.0000   1
1555.556   1.0293   0.1823   1.0000   1
1555.593   1.1273   0.1909   1.0000   1
1555.630   1.0098   0.1828   1.0000   1
1555.666   1.1595   0.1931   1.0000   1
1555.703   1.2316   0.1999   1.0000   1
1555.740   1.0547   0.1886   1.0000   1
1555.776   0.9190   0.1765   1.0000   1
1555.813   1.0958   0.1880   1.0000   1
1555.850   1.0754   0.1862   1.0000   1
1555.887   1.0436   0.1831   1.0000   1
1555.923   0.9544   0.1813   1.0000   1
1555.960   1.1275   0.1921   1.0000   1
1555.997   0.9841   0.1800   1.0000   1
1556.033   0.9212   0.1726   1.0000   1
1556.070   1.1055   0.1908   1.0000   1
1556.107   1.3608   0.2090   1.0000   1
1556.144   1.0528   0.1884   1.0000   1
1556.180   1.0863   0.1884   1.0000   1
1556.217   1.0251   0.1831   1.0000   1
1556.254   0.7676   0.1628   1.0000   1
1556.290   1.0103   0.1639   1.0000   1
1556.327   0.9305   0.1790   1.0000   1
1556.364   1.0351   0.1822   1.0000   1
1556.400   1.0271   0.1855   1.0000   1
1556.437   0.9623   0.1812   1.0000   1
1556.474   1.0018   0.1849   1.0000   1
1556.511   1.0990   0.1935   1.0000   1
1556.547   1.0971   0.1899   1.0000   1
1556.584   0.9596   0.1814   1.0000   1
1556.621   1.1495   0.1936   1.0000   1
1556.657   1.0986   0.1908   1.0000   1
1556.694   1.0484   0.1887   1.0000   1
1556.731   0.9896   0.1844   1.0000   1
1556.767   1.1539   0.1963   1.0000   1
1556.804   1.1047   0.1913   1.0000   1
1556.841   0.9788   0.1792   1.0000   1
1556.878   1.0174   0.1868   1.0000   1
1556.914   1.0549   0.1865   1.0000   1
1556.951   1.0602   0.1865   1.0000   1
