# Best-fit normalized data and profile from VoigtFit
# column 1 : Wavelength
# column 2 : Normalized flux
# column 3 : Normalized error
# column 4 : Best-fit profile
# column 5 : Pixel mask, 1=included, 0=excluded
1542.013   1.1106   0.1763   1.0000   1
1542.049   1.1373   0.1783   1.0000   1
1542.086   1.1170   0.1761   1.0000   1
1542.123   0.9257   0.1611   1.0000   1
1542.160   1.0766   0.1732   1.0000   1
1542.196   1.0539   0.1729   1.0000   1
1542.233   1.0457   0.1723   1.0000   1
1542.270   1.0858   0.1753   1.0000   1
1542.306   0.9833   0.1672   1.0000   1
1542.343   1.0535   0.1741   1.0000   1
1542.380   1.0269   0.1695   1.0000   1
1542.416   0.9263   0.1650   1.0000   1
1542.453   0.9517   0.1630   1.0000   1
1542.490   0.9886   0.1667   1.0000   1
1542.527   0.9348   0.1631   1.0000   1
1542.563   0.9743   0.1667   1.0000   1
1542.600   0.9735   0.1674   1.0000   1
1542.637   0.9904   0.1671   1.0000   1
1542.673   1.1001   0.1764   1.0000   1
1542.710   1.0482   0.1708   1.0000   1
1542.747   1.0986   0.1758   1.0000   1
1542.783   1.1339   0.1784   1.0000   1
1542.820   1.0039   0.1670   1.0000   1
1542.857   0.8975   0.1624   1.0000   1
1542.894   0.8885   0.1605   1.0000   1
1542.930   0.9317   0.1595   1.0000   1
1542.967   1.0402   0.1711   1.0000   1
1543.004   1.1137   0.1774   1.0000   1
1543.040   1.0272   0.1725   1.0000   1
1543.077   0.7873   0.1541   1.0000   1
1543.114   0.9399   0.1653   1.0000   1
1543.151   0.9510   0.1660   1.0000   1
1543.187   1.0182   0.1716   1.0000   1
1543.224   1.0970   0.1776   1.0000   1
1543.261   0.9670   0.1671   1.0000   1
1543.297   1.0116   0.1711   1.0000   1
1543.334   0.9609   0.1658   1.0000   1
1543.371   0.8436   0.1577   1.0000   1
1543.407   0.9981   0.1689   1.0000   1
1543.444   0.9473   0.1646   1.0000   1
1543.481   0.9732   0.1670   1.0000   1
1543.518   0.8486   0.1565   1.0000   1
1543.554   0.7071   0.1446   1.0000   1
1543.591   0.9758   0.1681   1.0000   1
1543.628   0.8458   0.1582   1.0000   1
1543.664   0.9469   0.1665   1.0000   1
1543.701   0.9171   0.1609   1.0000   1
1543.738   0.7428   0.1488   1.0000   1
1543.774   0.7736   0.1524   1.0000   1
1543.811   0.8609   0.1584   1.0000   1
1543.848   0.7990   0.1571   1.0000   1
1543.885   1.0237   0.1740   1.0000   1
1543.921   0.8605   0.1605   1.0000   1
1543.958   0.9445   0.1671   1.0000   1
1543.995   0.8526   0.1622   1.0000   1
1544.031   0.9261   0.1662   1.0000   1
1544.068   0.9257   0.1685   1.0000   1
1544.105   1.0039   0.1762   1.0000   1
1544.142   0.8669   0.1620   1.0000   1
1544.178   1.1237   0.1809   1.0000   1
1544.215   0.9493   0.1707   1.0000   1
1544.252   0.9584   0.1687   1.0000   1
1544.288   1.0357   0.1741   1.0000   1
1544.325   1.0641   0.1757   1.0000   1
1544.362   1.1246   0.1774   1.0000   1
1544.398   1.1423   0.1808   1.0000   1
1544.435   1.0585   0.1755   1.0000   1
1544.472   1.0812   0.1769   1.0000   1
1544.509   1.0818   0.1756   1.0000   1
1544.545   0.8988   0.1634   1.0000   1
1544.582   1.0630   0.1760   1.0000   1
1544.619   1.1306   0.1780   1.0000   1
1544.655   0.9667   0.1668   1.0000   1
1544.692   0.9709   0.1672   1.0000   1
1544.729   1.1535   0.1825   1.0000   1
1544.765   1.1445   0.1818   1.0000   1
1544.802   1.0598   0.1756   1.0000   1
1544.839   0.9996   0.1710   1.0000   1
1544.876   1.0237   0.1713   1.0000   1
1544.912   1.2538   0.1896   1.0000   1
1544.949   1.0012   0.1664   1.0000   1
1544.986   1.0799   0.1771   1.0000   1
1545.022   1.0645   0.1755   1.0000   1
1545.059   1.2332   0.1855   1.0000   1
1545.096   1.0969   0.1775   1.0000   1
1545.132   1.0705   0.1753   1.0000   1
1545.169   1.0195   0.1706   1.0000   1
1545.206   1.0666   0.1747   1.0000   1
1545.243   1.0905   0.1747   1.0000   1
1545.279   1.0957   0.1767   1.0000   1
1545.316   1.0976   0.1804   1.0000   1
1545.353   1.0939   0.1778   1.0000   1
1545.389   1.0618   0.1762   1.0000   1
1545.426   1.1053   0.1796   1.0000   1
1545.463   1.0356   0.1723   1.0000   1
1545.500   0.9945   0.1720   1.0000   1
1545.536   1.0527   0.1750   1.0000   1
1545.573   1.0613   0.1761   1.0000   1
1545.610   0.9935   0.1704   1.0000   1
1545.646   1.0204   0.1731   1.0000   1
1545.683   0.9112   0.1625   1.0000   1
1545.720   0.9611   0.1699   1.0000   1
1545.756   1.0051   0.1722   1.0000   1
1545.793   0.9595   0.1679   1.0000   1
1545.830   0.9724   0.1710   1.0000   1
1545.867   1.0044   0.1710   1.0000   1
1545.903   0.8793   0.1614   1.0000   1
1545.940   1.0092   0.1731   1.0000   1
1545.977   1.2260   0.1845   1.0000   1
1546.013   1.0982   0.1795   1.0000   1
1546.050   1.0319   0.1752   1.0000   1
1546.087   1.0589   0.1769   1.0000   1
1546.123   1.1080   0.1780   1.0000   1
1546.160   1.2253   0.1870   0.9999   1
1546.197   1.3039   0.1924   0.9997   1
1546.234   1.1509   0.1818   0.9993   1
1546.270   1.1625   0.1832   0.9982   1
1546.307   1.2000   0.1845   0.9959   1
1546.344   1.1292   0.1819   0.9912   1
1546.380   1.0330   0.1742   0.9822   1
1546.417   1.0711   0.1773   0.9666   1
1546.454   0.9054   0.1669   0.9415   1
1546.491   0.9066   0.1633   0.9046   1
1546.527   0.8296   0.1590   0.8558   1
1546.564   1.0723   0.1748   0.7968   1
1546.601   0.8897   0.1620   0.7334   1
1546.637   0.6721   0.1443   0.6728   1
1546.674   0.6384   0.1403   0.6224   1
1546.711   0.4690   0.1232   0.5878   1
1546.747   0.5057   0.1236   0.5736   1
1546.784   0.5206   0.1273   0.5797   1
1546.821   0.5943   0.1371   0.6057   1
1546.858   0.6408   0.1442   0.6471   1
1546.894   0.7750   0.1553   0.6973   1
1546.931   0.6952   0.1452   0.7480   1
1546.968   0.9015   0.1638   0.7908   1
1547.004   0.8865   0.1635   0.8189   1
1547.041   0.9654   0.1712   0.8318   1
1547.078   0.8829   0.1652   0.8335   1
1547.114   0.8148   0.1572   0.8323   1
1547.151   1.0024   0.1761   0.8362   1
1547.188   0.9114   0.1687   0.8507   1
1547.225   0.9224   0.1674   0.8749   1
1547.261   1.0442   0.1779   0.9051   1
1547.298   0.8544   0.1617   0.9350   1
1547.335   0.9638   0.1719   0.9597   1
1547.371   1.1383   0.1851   0.9767   1
1547.408   1.1106   0.1821   0.9863   1
1547.445   1.0646   0.1794   0.9896   1
1547.482   0.9954   0.1707   0.9879   1
1547.518   1.0732   0.1795   0.9764   1
1547.555   0.9749   0.1731   0.9220   1
1547.592   0.7733   0.1536   0.8024   1
1547.628   0.7177   0.1519   0.7462   1
1547.665   0.8320   0.1614   0.7617   1
1547.702   0.6566   0.1459   0.6960   1
1547.738   0.5713   0.1368   0.5689   1
1547.775   0.4862   0.1284   0.4537   1
1547.812   0.4140   0.1190   0.3883   1
1547.849   0.3658   0.1102   0.3748   1
1547.885   0.3432   0.1109   0.3969   1
1547.922   0.3460   0.1109   0.4254   1
1547.959   0.4672   0.1248   0.4406   1
1547.995   0.4933   0.1252   0.4404   1
1548.032   0.4264   0.1164   0.4345   1
1548.069   0.3554   0.1063   0.4332   1
1548.105   0.3511   0.1128   0.4420   1
1548.142   0.3983   0.1145   0.4630   1
1548.179   0.5305   0.1321   0.4960   1
1548.216   0.6627   0.1447   0.5399   1
1548.252   0.7042   0.1488   0.5928   1
1548.289   0.8088   0.1580   0.6513   1
1548.326   0.6937   0.1461   0.7121   1
1548.362   0.6837   0.1509   0.7713   1
1548.399   0.7764   0.1574   0.8254   1
1548.436   0.7315   0.1469   0.8720   1
1548.473   0.8165   0.1588   0.9101   1
1548.509   0.8934   0.1670   0.9391   1
1548.546   0.9092   0.1670   0.9605   1
1548.583   1.0942   0.1820   0.9753   1
1548.619   1.1396   0.1851   0.9851   1
1548.656   0.9880   0.1756   0.9914   1
1548.693   1.0854   0.1825   0.9952   1
1548.729   0.9636   0.1716   0.9974   1
1548.766   1.0053   0.1744   0.9985   1
1548.803   0.8926   0.1659   0.9991   1
1548.840   0.9180   0.1656   0.9990   1
1548.876   0.9699   0.1725   0.9983   1
1548.913   0.9269   0.1695   0.9965   1
1548.950   0.8999   0.1668   0.9929   1
1548.986   0.8133   0.1603   0.9863   1
1549.023   0.7730   0.1519   0.9754   1
1549.060   0.7347   0.1529   0.9584   1
1549.096   0.7025   0.1472   0.9347   1
1549.133   0.7950   0.1605   0.9041   1
1549.170   0.8269   0.1622   0.8688   1
1549.207   0.7633   0.1558   0.8322   1
1549.243   1.0349   0.1783   0.7988   1
1549.280   0.9369   0.1688   0.7732   1
1549.317   0.7986   0.1576   0.7593   1
1549.353   0.7237   0.1495   0.7583   1
1549.390   0.8795   0.1601   0.7707   1
1549.427   0.8306   0.1567   0.7937   1
1549.463   1.0070   0.1718   0.8231   1
1549.500   0.7206   0.1479   0.8538   1
1549.537   0.8711   0.1657   0.8809   1
1549.574   0.7876   0.1579   0.9000   1
1549.610   0.7485   0.1528   0.9103   1
1549.647   0.7685   0.1590   0.9131   1
1549.684   0.7656   0.1566   0.9125   1
1549.720   0.8089   0.1597   0.9131   1
1549.757   0.8997   0.1693   0.9186   1
1549.794   0.9109   0.1711   0.9298   1
1549.831   0.7235   0.1489   0.9450   1
1549.867   0.8853   0.1677   0.9611   1
1549.904   0.7875   0.1602   0.9751   1
1549.941   1.0497   0.1805   0.9853   1
1549.977   1.0846   0.1798   0.9916   1
1550.014   0.8720   0.1621   0.9944   1
1550.051   0.9490   0.1738   0.9946   1
1550.087   0.9129   0.1669   0.9914   1
1550.124   0.9974   0.1749   0.9732   1
1550.161   0.9401   0.1732   0.9130   1
1550.198   0.8700   0.1653   0.8525   1
1550.234   0.8365   0.1609   0.8618   1
1550.271   0.8937   0.1692   0.8534   1
1550.308   0.7600   0.1569   0.7846   1
1550.344   0.6352   0.1459   0.7001   1
1550.381   0.6247   0.1432   0.6373   1
1550.418   0.6970   0.1498   0.6118   1
1550.454   0.5944   0.1371   0.6206   1
1550.491   0.7588   0.1567   0.6434   1
1550.528   0.7962   0.1609   0.6607   1
1550.565   0.7424   0.1551   0.6648   1
1550.601   0.6283   0.1438   0.6611   1
1550.638   0.7905   0.1593   0.6579   1
1550.675   0.6231   0.1455   0.6610   1
1550.711   0.5906   0.1370   0.6726   1
1550.748   0.7181   0.1518   0.6929   1
1550.785   0.8364   0.1636   0.7204   1
1550.822   0.8107   0.1632   0.7537   1
1550.858   0.7902   0.1612   0.7901   1
1550.895   0.9407   0.1706   0.8274   1
1550.932   0.6945   0.1510   0.8631   1
1550.968   0.9342   0.1689   0.8955   1
1551.005   1.0548   0.1821   0.9230   1
1551.042   0.9816   0.1773   0.9455   1
1551.078   0.8507   0.1666   0.9629   1
1551.115   1.0365   0.1801   0.9756   1
1551.152   1.0516   0.1798   0.9846   1
1551.189   0.9452   0.1702   0.9906   1
1551.225   1.1633   0.1865   0.9945   1
1551.262   1.0748   0.1830   0.9969   1
1551.299   0.8951   0.1682   0.9983   1
1551.335   1.0128   0.1790   0.9991   1
1551.372   0.9553   0.1725   0.9995   1
1551.409   1.1045   0.1881   0.9998   1
1551.445   1.2133   0.1940   0.9999   1
1551.482   0.9539   0.1771   0.9999   1
1551.519   1.0403   0.1844   1.0000   1
1551.556   1.0121   0.1803   1.0000   1
1551.592   0.9836   0.1765   1.0000   1
1551.629   1.0230   0.1821   1.0000   1
1551.666   0.8730   0.1662   1.0000   1
1551.702   1.1752   0.1936   1.0000   1
1551.739   0.9534   0.1749   1.0000   1
1551.776   1.1944   0.1940   1.0000   1
1551.813   1.0429   0.1823   1.0000   1
1551.849   1.1579   0.1914   1.0000   1
1551.886   1.1551   0.1897   1.0000   1
1551.923   1.0298   0.1811   1.0000   1
1551.959   1.0647   0.1842   1.0000   1
1551.996   1.0723   0.1860   1.0000   1
1552.033   1.0562   0.1843   1.0000   1
1552.069   1.1276   0.1889   1.0000   1
1552.106   1.0366   0.1802   1.0000   1
1552.143   1.0924   0.1862   1.0000   1
1552.180   1.0930   0.1862   1.0000   1
1552.216   1.1596   0.1904   1.0000   1
1552.253   1.0000   0.1783   1.0000   1
1552.290   1.0489   0.1843   1.0000   1
1552.326   0.9289   0.1753   1.0000   1
1552.363   1.0119   0.1795   1.0000   1
1552.400   1.0907   0.1861   1.0000   1
1552.436   0.9149   0.1709   1.0000   1
1552.473   1.0154   0.1758   1.0000   1
1552.510   1.0358   0.1821   1.0000   1
1552.547   1.0496   0.1821   1.0000   1
1552.583   1.0488   0.1808   1.0000   1
1552.620   1.1637   0.1902   1.0000   1
1552.657   1.0054   0.1774   1.0000   1
1552.693   1.1360   0.1882   1.0000   1
1552.730   0.9745   0.1754   1.0000   1
1552.767   1.0679   0.1841   1.0000   1
1552.804   1.0887   0.1866   1.0000   1
1552.840   1.1563   0.1895   1.0000   1
1552.877   1.0289   0.1815   1.0000   1
1552.914   1.1499   0.1892   1.0000   1
1552.950   1.0730   0.1826   1.0000   1
1552.987   0.9632   0.1739   1.0000   1
1553.024   0.9485   0.1729   1.0000   1
1553.060   1.1269   0.1908   1.0000   1
1553.097   1.0338   0.1803   1.0000   1
1553.134   1.0621   0.1867   1.0000   1
1553.171   0.8105   0.1626   1.0000   1
1553.207   0.7817   0.1616   1.0000   1
1553.244   0.9344   0.1746   1.0000   1
1553.281   0.9056   0.1718   1.0000   1
1553.317   1.1186   0.1901   1.0000   1
1553.354   0.9022   0.1687   1.0000   1
1553.391   0.9507   0.1772   1.0000   1
1553.427   0.9527   0.1751   1.0000   1
1553.464   0.8976   0.1692   1.0000   1
1553.501   1.0257   0.1850   1.0000   1
1553.538   1.0750   0.1865   1.0000   1
1553.574   1.2503   0.1991   1.0000   1
1553.611   1.0167   0.1817   1.0000   1
1553.648   1.0025   0.1806   1.0000   1
1553.684   0.9028   0.1691   1.0000   1
1553.721   0.7131   0.1534   1.0000   1
1553.758   0.7495   0.1587   1.0000   1
1553.794   0.7549   0.1573   1.0000   1
1553.831   0.7597   0.1577   1.0000   1
1553.868   0.8231   0.1658   1.0000   1
1553.905   0.8739   0.1704   1.0000   1
1553.941   1.0519   0.1842   1.0000   1
1553.978   1.1492   0.1905   1.0000   1
1554.015   1.0851   0.1874   1.0000   1
1554.051   1.1881   0.1956   1.0000   1
1554.088   1.0350   0.1843   1.0000   1
1554.125   1.0437   0.1823   1.0000   1
1554.162   0.8219   0.1640   1.0000   1
1554.198   0.9351   0.1781   1.0000   1
1554.235   0.9599   0.1796   1.0000   1
1554.272   1.1074   0.2751   1.0000   1
1554.308   1.2567   0.2195   1.0000   1
1554.345   1.1189   0.1938   1.0000   1
1554.382   0.9736   0.1808   1.0000   1
1554.418   1.0334   0.1869   1.0000   1
1554.455   1.1705   0.2017   1.0000   1
1554.492   0.9150   0.1771   1.0000   1
1554.529   0.8214   0.1715   1.0000   1
1554.565   1.0965   0.1938   1.0000   1
1554.602   0.9157   0.1758   1.0000   1
1554.639   0.9198   0.2507   1.0000   1
1554.675   0.7728   0.1603   1.0000   1
1554.712   0.8867   0.1738   1.0000   1
1554.749   0.8576   0.1707   1.0000   1
1554.785   0.7864   0.1601   1.0000   1
1554.822   0.9655   0.1799   1.0000   1
1554.859   0.8724   0.1733   1.0000   1
1554.896   0.8602   0.1726   1.0000   1
1554.932   0.9906   0.1780   1.0000   1
1554.969   1.0468   0.1854   1.0000   1
1555.006   0.9497   0.1756   1.0000   1
1555.042   0.9577   0.1791   1.0000   1
1555.079   0.9587   0.1785   1.0000   1
1555.116   1.0634   0.1842   1.0000   1
1555.153   1.1738   0.1949   1.0000   1
1555.189   1.0182   0.1836   1.0000   1
1555.226   0.8494   0.1709   1.0000   1
1555.263   1.0329   0.1847   1.0000   1
1555.299   1.1218   0.1901   1.0000   1
1555.336   1.1242   0.1923   1.0000   1
1555.373   0.9460   0.1778   1.0000   1
1555.409   0.7996   0.1622   1.0000   1
1555.446   0.8872   0.1743   1.0000   1
1555.483   0.8831   0.1680   1.0000   1
1555.520   1.1849   0.1968   1.0000   1
1555.556   1.0289   0.1823   1.0000   1
1555.593   1.1269   0.1908   1.0000   1
1555.630   1.0095   0.1827   1.0000   1
1555.666   1.1591   0.1931   1.0000   1
1555.703   1.2312   0.1999   1.0000   1
1555.740   1.0544   0.1885   1.0000   1
1555.776   0.9187   0.1765   1.0000   1
1555.813   1.0955   0.1879   1.0000   1
1555.850   1.0751   0.1862   1.0000   1
1555.887   1.0433   0.1830   1.0000   1
1555.923   0.9542   0.1813   1.0000   1
1555.960   1.1272   0.1920   1.0000   1
1555.997   0.9839   0.1800   1.0000   1
1556.033   0.9210   0.1725   1.0000   1
1556.070   1.1052   0.1907   1.0000   1
1556.107   1.3605   0.2090   1.0000   1
1556.144   1.0526   0.1883   1.0000   1
1556.180   1.0861   0.1884   1.0000   1
1556.217   1.0250   0.1831   1.0000   1
1556.254   0.7675   0.1628   1.0000   1
1556.290   1.0101   0.1639   1.0000   1
1556.327   0.9304   0.1789   1.0000   1
1556.364   1.0349   0.1822   1.0000   1
1556.400   1.0270   0.1855   1.0000   1
1556.437   0.9622   0.1812   1.0000   1
1556.474   1.0017   0.1848   1.0000   1
1556.511   1.0989   0.1935   1.0000   1
1556.547   1.0970   0.1899   1.0000   1
1556.584   0.9595   0.1814   1.0000   1
1556.621   1.1495   0.1936   1.0000   1
1556.657   1.0986   0.1908   1.0000   1
1556.694   1.0484   0.1887   1.0000   1
1556.731   0.9895   0.1844   1.0000   1
1556.767   1.1538   0.1963   1.0000   1
1556.804   1.1047   0.1913   1.0000   1
1556.841   0.9788   0.1792   1.0000   1
1556.878   1.0174   0.1868   1.0000   1
1556.914   1.0550   0.1865   1.0000   1
1556.951   1.0602   0.1865   1.0000   1
