# Best-fit normalized data and profile from VoigtFit
# column 1 : Wavelength
# column 2 : Normalized flux
# column 3 : Normalized error
# column 4 : Best-fit profile
# column 5 : Pixel mask, 1=included, 0=excluded
1201.707   1.1659   0.2185   1.0000   1
1201.737   0.8953   0.1971   1.0000   1
1201.767   0.7541   0.1837   1.0000   1
1201.797   1.0207   0.2072   1.0000   1
1201.827   0.9849   0.2045   1.0000   1
1201.857   1.1749   0.2196   1.0000   1
1201.886   0.9722   0.2043   1.0000   1
1201.916   0.9932   0.2061   1.0000   1
1201.946   1.0633   0.2143   1.0000   1
1201.976   1.0207   0.2101   1.0000   1
1202.006   0.8288   0.1944   1.0000   1
1202.036   0.8808   0.1970   1.0000   1
1202.066   1.2228   0.2252   1.0000   1
1202.095   1.0797   0.2146   1.0000   1
1202.125   1.0459   0.2111   1.0000   1
1202.155   0.8650   0.1962   1.0000   1
1202.185   1.0494   0.2138   1.0000   1
1202.215   0.9412   0.2046   1.0000   1
1202.245   1.1360   0.2200   1.0000   1
1202.275   1.2535   0.2281   1.0000   1
1202.304   0.9694   0.2042   1.0000   1
1202.334   0.8665   0.1947   1.0000   1
1202.364   0.8169   0.1885   1.0000   1
1202.394   1.0619   0.2096   1.0000   1
1202.424   1.1322   0.2149   1.0000   1
1202.454   1.0229   0.2036   1.0000   1
1202.484   1.0811   0.2105   1.0000   1
1202.514   0.8514   0.1914   1.0000   1
1202.543   0.8627   0.1927   1.0000   1
1202.573   0.9211   0.1973   1.0000   1
1202.603   0.8518   0.1913   1.0000   1
1202.633   1.0416   0.2076   1.0000   1
1202.663   0.9952   0.2040   1.0000   1
1202.693   0.9846   0.2032   1.0000   1
1202.723   0.9611   0.2015   1.0000   1
1202.752   0.9366   0.1990   1.0000   1
1202.782   1.1032   0.2133   1.0000   1
1202.812   1.0300   0.2097   1.0000   1
1202.842   0.8991   0.1999   1.0000   1
1202.872   0.8932   0.2017   1.0000   1
1202.902   0.8791   0.1992   1.0000   1
1202.932   1.0062   0.2099   1.0000   1
1202.962   0.8791   0.1958   1.0000   1
1202.991   1.0661   0.2122   1.0000   1
1203.021   1.1039   0.2155   1.0000   1
1203.051   1.0486   0.2136   1.0000   1
1203.081   1.0210   0.2112   1.0000   1
1203.111   1.0771   0.2167   1.0000   1
1203.141   1.1360   0.2215   1.0000   1
1203.171   1.0470   0.2130   1.0000   1
1203.200   0.8225   0.1938   1.0000   1
1203.230   1.0650   0.2127   1.0000   1
1203.260   1.0492   0.2109   1.0000   1
1203.290   0.9829   0.2063   1.0000   1
1203.320   0.9101   0.1990   1.0000   1
1203.350   1.0940   0.2143   1.0000   1
1203.380   0.9314   0.2007   1.0000   1
1203.410   1.1069   0.2155   1.0000   1
1203.439   1.0331   0.2094   1.0000   1
1203.469   1.0739   0.2124   1.0000   1
1203.499   0.8947   0.1975   1.0000   1
1203.529   0.9014   0.1980   1.0000   1
1203.559   1.1044   0.2154   1.0000   1
1203.589   0.9403   0.2025   1.0000   1
1203.619   1.0123   0.2087   1.0000   1
1203.648   0.9435   0.2030   1.0000   1
1203.678   1.0627   0.2129   1.0000   1
1203.708   0.7658   0.1869   1.0000   1
1203.738   1.0121   0.2091   1.0000   1
1203.768   1.2475   0.2284   1.0000   1
1203.798   0.9867   0.2073   1.0000   1
1203.828   0.9835   0.2076   1.0000   1
1203.858   1.2080   0.2259   1.0000   1
1203.887   1.0075   0.2092   1.0000   1
1203.917   1.0295   0.2117   1.0000   1
1203.947   0.8667   0.1979   1.0000   1
1203.977   1.0833   0.2169   1.0000   1
1204.007   0.9945   0.2092   1.0000   1
1204.037   1.1039   0.2189   1.0000   1
1204.067   1.1213   0.2206   1.0000   1
1204.096   1.1189   0.2207   1.0000   1
1204.126   0.9930   0.2106   1.0000   1
1204.156   0.8630   0.1977   1.0000   1
1204.186   0.9273   0.2046   1.0000   1
1204.216   1.0440   0.2153   1.0000   1
1204.246   1.0701   0.2177   1.0000   1
1204.276   1.0666   0.2171   1.0000   1
1204.306   0.9698   0.2089   1.0000   1
1204.335   0.8880   0.2018   1.0000   1
1204.365   0.9584   0.2085   1.0000   0
1204.395   1.1267   0.2234   1.0000   0
1204.425   0.8071   0.1938   1.0000   0
1204.455   0.7401   0.1885   1.0000   0
1204.485   0.6487   0.1781   1.0000   0
1204.515   0.7560   0.1886   1.0000   0
1204.544   0.6080   0.1753   1.0000   0
1204.574   0.9509   0.2082   1.0000   0
1204.604   0.6912   0.1836   1.0000   0
1204.634   0.9618   0.2108   1.0000   0
1204.664   0.7287   0.1893   1.0000   0
1204.694   0.9003   0.2062   1.0000   0
1204.724   1.1867   0.2306   1.0000   0
1204.754   1.0228   0.2177   1.0000   0
1204.783   0.8963   0.2062   1.0000   0
1204.813   0.8210   0.1994   1.0000   0
1204.843   0.8715   0.2025   1.0000   0
1204.873   0.5567   0.1711   1.0000   0
1204.903   0.5571   0.1721   1.0000   0
1204.933   0.5709   0.1741   1.0000   0
1204.963   0.6904   0.1854   1.0000   0
1204.992   0.6038   0.1776   1.0000   0
1205.022   0.6012   0.1773   1.0000   0
1205.052   0.8099   0.1990   1.0000   0
1205.082   0.8611   0.2054   1.0000   0
1205.112   0.7904   0.1991   1.0000   0
1205.142   0.7101   0.1901   1.0000   0
1205.172   0.7379   0.1939   1.0000   0
1205.202   0.6530   0.1858   1.0000   0
1205.231   0.7315   0.1941   0.9999   0
1205.261   1.1397   0.2314   0.9999   0
1205.291   1.1425   0.2326   0.9999   0
1205.321   0.9532   0.2156   0.9999   1
1205.351   0.9128   0.2132   0.9999   1
1205.381   1.2191   0.2390   0.9999   1
1205.411   0.9967   0.2208   0.9999   1
1205.440   1.1859   0.2364   0.9999   1
1205.470   1.1220   0.2321   0.9999   1
1205.500   1.0652   0.2267   0.9999   1
1205.530   1.0573   0.2289   0.9999   1
1205.560   0.7505   0.2012   0.9999   1
1205.590   1.0350   0.2319   0.9999   1
1205.620   0.9665   0.2259   0.9999   1
1205.650   0.8452   0.2129   0.9999   1
1205.679   0.8238   0.2102   0.9999   1
1205.709   0.9222   0.2193   0.9999   1
1205.739   1.0861   0.2356   0.9999   1
1205.769   0.8895   0.2160   0.9999   1
1205.799   0.9740   0.2258   0.9998   1
1205.829   0.8856   0.2182   0.9998   1
1205.859   0.9334   0.2210   0.9997   1
1205.888   1.0256   0.2304   0.9996   1
1205.918   1.0499   0.2344   0.9994   1
1205.948   1.1153   0.2371   0.9988   1
1205.978   0.9412   0.2199   0.9977   1
1206.008   1.1367   0.2405   0.9957   1
1206.038   1.2304   0.2459   0.9918   1
1206.068   1.2000   0.2435   0.9847   1
1206.098   1.0398   0.2287   0.9724   1
1206.127   1.0980   0.2352   0.9518   1
1206.157   0.9692   0.2240   0.9186   1
1206.187   1.0966   0.2345   0.8687   1
1206.217   0.9068   0.2181   0.7980   1
1206.247   0.7656   0.2028   0.7039   1
1206.277   0.4910   0.1722   0.5897   1
1206.307   0.3882   0.1585   0.4632   1
1206.336   0.2836   0.1413   0.3374   1
1206.366   0.1804   0.1225   0.2258   1
1206.396   0.1849   0.1228   0.1376   1
1206.426   0.1255   0.1081   0.0762   1
1206.456   0.0455   0.0877   0.0391   1
1206.486   0.0642   0.0950   0.0186   1
1206.516   0.0446   0.0838   0.0084   1
1206.546   0.0239   0.0755   0.0038   1
1206.575   -0.0090   0.0695   0.0019   1
1206.605   -0.0052   0.0721   0.0010   1
1206.635   0.0005   0.0747   0.0007   1
1206.665   0.0176   0.0739   0.0006   1
1206.695   0.0148   0.0791   0.0008   1
1206.725   0.0348   0.0823   0.0013   1
1206.755   0.0380   0.0844   0.0025   1
1206.784   0.0437   0.0866   0.0054   1
1206.814   0.0527   0.0921   0.0119   1
1206.844   0.0403   0.0874   0.0259   1
1206.874   0.1193   0.1075   0.0531   1
1206.904   0.1399   0.1146   0.1001   1
1206.934   0.0913   0.1023   0.1726   1
1206.964   0.2099   0.1317   0.2721   1
1206.994   0.4848   0.1735   0.3916   1
1207.023   0.4780   0.1693   0.5196   1
1207.053   0.6447   0.1931   0.6417   1
1207.083   0.9075   0.2215   0.7475   1
1207.113   0.8869   0.2198   0.8317   1
1207.143   0.8374   0.2157   0.8929   1
1207.173   0.8489   0.2164   0.9329   1
1207.203   0.9255   0.2243   0.9434   1
1207.232   1.0089   0.2313   0.8915   1
1207.262   0.7529   0.2062   0.8001   1
1207.292   0.7881   0.2105   0.8148   1
1207.322   0.9844   0.2290   0.9214   1
1207.352   1.0391   0.2356   0.9842   1
1207.382   1.0259   0.2345   0.9977   1
1207.412   1.2397   0.2537   0.9993   1
1207.442   1.1215   0.2432   0.9996   1
1207.471   0.9351   0.2261   0.9997   1
1207.501   1.1103   0.2424   0.9998   1
1207.531   1.1011   0.2417   0.9998   1
1207.561   1.0766   0.2394   0.9998   1
1207.591   1.1307   0.2443   0.9999   1
1207.621   1.1550   0.2461   0.9999   1
1207.651   1.0675   0.2389   0.9999   1
1207.680   0.9780   0.2303   0.9999   1
1207.710   0.8785   0.2176   0.9999   1
1207.740   1.0545   0.2378   0.9999   1
1207.770   0.9361   0.2249   0.9999   1
1207.800   0.8975   0.2206   0.9999   1
1207.830   0.8348   0.2145   0.9999   1
1207.860   1.2311   0.2510   0.9999   1
1207.890   1.1187   0.2428   0.9999   1
1207.919   1.1506   0.2456   0.9999   1
1207.949   1.0984   0.2413   0.9999   1
1207.979   1.1175   0.2426   0.9999   1
1208.009   1.3181   0.2605   0.9999   1
1208.039   1.1947   0.2496   0.9999   1
1208.069   1.2432   0.2531   0.9999   1
1208.099   1.5421   0.2769   0.9999   1
1208.128   1.2723   0.2567   1.0000   1
1208.158   1.1952   0.2502   1.0000   1
1208.188   1.2182   0.2518   1.0000   1
1208.218   1.1094   0.2420   1.0000   1
1208.248   1.0904   0.2413   1.0000   1
1208.278   1.1544   0.2458   1.0000   1
1208.308   1.0702   0.2379   1.0000   1
1208.338   1.2173   0.2521   1.0000   1
1208.367   0.8698   0.2198   1.0000   1
1208.397   0.7454   0.2064   1.0000   1
1208.427   0.8252   0.2157   1.0000   1
1208.457   0.8443   0.2163   1.0000   1
1208.487   0.8761   0.2202   1.0000   1
1208.517   0.9541   0.2282   1.0000   1
1208.547   1.0019   0.2308   1.0000   1
1208.576   1.0595   0.2381   1.0000   1
1208.606   0.9317   0.2259   1.0000   1
1208.636   1.1469   0.2466   1.0000   1
1208.666   1.0074   0.2328   1.0000   1
1208.696   1.0453   0.2360   1.0000   1
1208.726   1.1972   0.2506   1.0000   1
1208.756   1.1583   0.2474   1.0000   1
1208.786   1.0161   0.2331   1.0000   1
1208.815   1.0700   0.2396   1.0000   1
1208.845   0.8538   0.2189   1.0000   1
1208.875   0.8946   0.2231   1.0000   1
1208.905   0.9912   0.2300   1.0000   1
1208.935   1.0280   0.2353   1.0000   1
1208.965   1.0710   0.2391   1.0000   1
1208.995   1.3279   0.2619   1.0000   1
1209.024   0.9400   0.2274   1.0000   1
1209.054   1.0010   0.2338   1.0000   1
1209.084   0.8389   0.2183   1.0000   1
1209.114   0.8974   0.2245   1.0000   1
1209.144   0.9895   0.2332   1.0000   1
1209.174   0.8199   0.2166   1.0000   1
1209.204   1.0319   0.2366   1.0000   1
1209.234   0.8370   0.2187   1.0000   1
1209.263   0.7602   0.2067   1.0000   1
1209.293   0.8443   0.2200   1.0000   1
1209.323   0.7967   0.2148   1.0000   1
1209.353   0.8512   0.2207   1.0000   1
1209.383   0.9598   0.2305   1.0000   1
1209.413   1.0787   0.2413   1.0000   1
1209.443   1.2912   0.2608   1.0000   1
1209.472   0.8179   0.2179   1.0000   1
1209.502   1.0053   0.2364   1.0000   1
1209.532   1.0307   0.2396   1.0000   1
1209.562   1.1445   0.2507   1.0000   1
1209.592   1.0910   0.2436   1.0000   1
1209.622   1.0741   0.2442   1.0000   1
1209.652   0.9946   0.2371   1.0000   1
1209.682   1.1936   0.2559   1.0000   1
1209.711   0.9346   0.2317   1.0000   1
1209.741   1.0493   0.2436   1.0000   1
1209.771   1.2322   0.2593   1.0000   1
1209.801   1.1694   0.2555   1.0000   1
1209.831   0.9360   0.2344   1.0000   1
1209.861   1.1896   0.2557   1.0000   1
1209.891   1.0868   0.2488   1.0000   1
1209.920   1.1652   0.2565   1.0000   1
1209.950   1.1998   0.2609   1.0000   1
1209.980   0.9985   0.2423   1.0000   1
1210.010   1.1576   0.2581   1.0000   1
1210.040   0.8128   0.2254   1.0000   1
1210.070   0.8306   0.2272   1.0000   1
1210.100   0.9659   0.2393   1.0000   1
1210.130   0.7974   0.2247   1.0000   1
1210.159   0.6778   0.2095   1.0000   1
1210.189   0.7692   0.2234   1.0000   1
1210.219   0.8283   0.2292   1.0000   1
1210.249   0.6934   0.2153   1.0000   1
1210.279   0.6048   0.2034   1.0000   1
1210.309   0.7310   0.2231   1.0000   1
1210.339   0.7237   0.2218   1.0000   1
1210.368   0.7453   0.2264   1.0000   1
1210.398   0.8785   0.2398   1.0000   1
1210.428   0.8823   0.2397   1.0000   1
1210.458   0.9920   0.2542   1.0000   1
1210.488   0.9731   0.2537   1.0000   1
1210.518   0.9954   0.2604   1.0000   1
1210.548   0.9557   0.2579   1.0000   1
1210.578   0.8885   0.2518   1.0000   1
1210.607   1.0148   0.2629   1.0000   1
1210.637   0.9989   0.2562   1.0000   1
1210.667   1.0691   0.2720   1.0000   1
1210.697   1.0699   0.2721   1.0000   1
1210.727   1.1196   0.2738   1.0000   1
1210.757   1.1119   0.2744   1.0000   1
1210.787   1.2937   0.2945   1.0000   1
1210.816   0.9494   0.2620   1.0000   1
1210.846   1.1339   0.2827   1.0000   1
1210.876   1.0538   0.2760   1.0000   1
1210.906   1.2798   0.2987   1.0000   1
1210.936   0.9818   0.2723   1.0000   1
1210.966   1.1059   0.2857   1.0000   1
1210.996   1.0642   0.2835   1.0000   1
1211.026   1.3364   0.3100   1.0000   1
1211.055   1.3338   0.3128   1.0000   1
1211.085   0.9911   0.2802   1.0000   1
1211.115   1.2086   0.3053   1.0000   1