# Best-fit normalized data and profile from VoigtFit
# column 1 : Wavelength
# column 2 : Normalized flux
# column 3 : Normalized error
# column 4 : Best-fit profile
# column 5 : Pixel mask, 1=included, 0=excluded
1330.102   0.9227   0.1437   1.0000   1
1330.131   1.0364   0.1512   1.0000   1
1330.161   0.9370   0.1443   1.0000   1
1330.191   0.8524   0.1388   1.0000   1
1330.221   0.9074   0.1425   1.0000   1
1330.251   0.9337   0.1446   1.0000   1
1330.281   0.9891   0.1481   1.0000   1
1330.311   0.8799   0.1405   1.0000   1
1330.341   1.0038   0.1492   1.0000   1
1330.371   0.9411   0.1452   1.0000   1
1330.400   0.8250   0.1369   1.0000   1
1330.430   1.0921   0.1547   1.0000   1
1330.460   0.9884   0.1482   1.0000   1
1330.490   0.9192   0.1436   1.0000   1
1330.520   1.0349   0.1511   1.0000   1
1330.550   1.0376   0.1512   1.0000   1
1330.580   0.9692   0.1469   1.0000   1
1330.610   0.8928   0.1418   1.0000   1
1330.640   1.0649   0.1525   1.0000   1
1330.669   0.9821   0.1480   1.0000   1
1330.699   1.0153   0.1498   1.0000   1
1330.729   1.0054   0.1493   1.0000   1
1330.759   0.9984   0.1490   1.0000   1
1330.789   0.9411   0.1450   1.0000   1
1330.819   1.1003   0.1553   1.0000   1
1330.849   1.0440   0.1518   1.0000   1
1330.879   1.1320   0.1573   1.0000   1
1330.908   0.9708   0.1469   1.0000   1
1330.938   0.9727   0.1473   1.0000   1
1330.968   1.0820   0.1542   1.0000   1
1330.998   0.9302   0.1443   1.0000   1
1331.028   0.9545   0.1462   1.0000   1
1331.058   0.9463   0.1456   1.0000   1
1331.088   0.9381   0.1451   1.0000   1
1331.118   0.9415   0.1449   1.0000   1
1331.148   0.9240   0.1442   1.0000   1
1331.177   1.0608   0.1531   1.0000   1
1331.207   0.9484   0.1456   1.0000   1
1331.237   1.0347   0.1513   1.0000   1
1331.267   1.0760   0.1537   1.0000   1
1331.297   1.0754   0.1542   1.0000   1
1331.327   0.9998   0.1493   1.0000   1
1331.357   1.0249   0.1508   1.0000   1
1331.387   0.9845   0.1481   1.0000   1
1331.417   0.9258   0.1441   1.0000   1
1331.446   0.9360   0.1453   1.0000   1
1331.476   1.0965   0.1553   1.0000   1
1331.506   0.9513   0.1460   1.0000   1
1331.536   1.0555   0.1530   1.0000   1
1331.566   1.0953   0.1553   1.0000   1
1331.596   0.9626   0.1469   1.0000   1
1331.626   1.0660   0.1534   1.0000   1
1331.656   1.0475   0.1524   1.0000   1
1331.685   1.2106   0.1620   1.0000   1
1331.715   0.9725   0.1473   1.0000   1
1331.745   0.9925   0.1490   1.0000   1
1331.775   1.0857   0.1549   1.0000   1
1331.805   1.1777   0.1603   1.0000   1
1331.835   0.9005   0.1420   1.0000   1
1331.865   0.9502   0.1463   1.0000   1
1331.895   0.9898   0.1489   1.0000   1
1331.925   0.9883   0.1489   1.0000   1
1331.954   0.9608   0.1470   1.0000   1
1331.984   1.0187   0.1513   1.0000   1
1332.014   1.0819   0.1555   1.0000   1
1332.044   1.0211   0.1526   1.0000   1
1332.074   0.7909   0.1379   1.0000   1
1332.104   1.0070   0.1534   1.0000   1
1332.134   1.0756   0.1578   1.0000   1
1332.164   1.1149   0.1605   1.0000   1
1332.194   1.0556   0.1566   1.0000   1
1332.223   0.9446   0.1492   1.0000   1
1332.253   0.9195   0.1477   1.0000   1
1332.283   1.0773   0.1584   1.0000   1
1332.313   1.0849   0.1603   1.0000   1
1332.343   0.9868   0.1523   1.0000   1
1332.373   1.0204   0.1541   1.0000   1
1332.403   1.0005   0.1521   1.0000   1
1332.433   0.9873   0.1501   1.0000   1
1332.462   0.9513   0.1469   1.0000   1
1332.492   1.0159   0.1509   1.0000   1
1332.522   0.9689   0.1477   1.0000   1
1332.552   1.0706   0.1543   1.0000   1
1332.582   1.1816   0.1611   1.0000   1
1332.612   1.1301   0.1580   1.0000   1
1332.642   1.0871   0.1554   1.0000   1
1332.672   0.8372   0.1389   1.0000   1
1332.702   0.9660   0.1476   1.0000   1
1332.731   0.9378   0.1455   1.0000   1
1332.761   0.9209   0.1446   1.0000   1
1332.791   1.1250   0.1576   1.0000   1
1332.821   0.9552   0.1467   1.0000   1
1332.851   0.9906   0.1492   1.0000   1
1332.881   1.0807   0.1551   1.0000   1
1332.911   1.1387   0.1584   1.0000   1
1332.941   1.0247   0.1514   1.0000   1
1332.970   1.0035   0.1501   1.0000   1
1333.000   1.0625   0.1541   1.0000   1
1333.030   1.0502   0.1530   1.0000   1
1333.060   0.9386   0.1460   1.0000   1
1333.090   0.7664   0.1332   1.0000   1
1333.120   1.0491   0.1529   1.0000   1
1333.150   1.0591   0.1534   1.0000   1
1333.180   1.1458   0.1590   1.0000   1
1333.210   0.9922   0.1496   1.0000   1
1333.239   0.9821   0.1488   1.0000   1
1333.269   1.0278   0.1520   1.0000   1
1333.299   1.1382   0.1587   1.0000   1
1333.329   1.0630   0.1540   1.0000   1
1333.359   1.0980   0.1562   1.0000   1
1333.389   0.9786   0.1487   1.0000   1
1333.419   1.1222   0.1576   1.0000   1
1333.449   1.1278   0.1579   1.0000   1
1333.478   1.0566   0.1535   1.0000   1
1333.508   0.8414   0.1394   1.0000   1
1333.538   0.9943   0.1499   1.0000   1
1333.568   0.9616   0.1476   1.0000   1
1333.598   1.0149   0.1511   1.0000   1
1333.628   1.0468   0.1530   1.0000   1
1333.658   1.0298   0.1522   1.0000   1
1333.688   0.8959   0.1433   1.0000   1
1333.718   1.1007   0.1566   1.0000   1
1333.747   0.8361   0.1387   0.9999   1
1333.777   0.9784   0.1490   0.9999   1
1333.807   1.0874   0.1556   0.9998   1
1333.837   0.9088   0.1441   0.9997   1
1333.867   1.1115   0.1574   0.9994   1
1333.897   0.9363   0.1462   0.9988   1
1333.927   1.0569   0.1539   0.9977   1
1333.957   1.0174   0.1515   0.9957   1
1333.986   0.8463   0.1400   0.9924   1
1334.016   1.0062   0.1506   0.9866   1
1334.046   0.9008   0.1433   0.9771   1
1334.076   0.9484   0.1468   0.9621   1
1334.106   1.0563   0.1537   0.9393   1
1334.136   0.8691   0.1410   0.9055   1
1334.166   1.0527   0.1537   0.8577   1
1334.196   0.8870   0.1409   0.7940   1
1334.226   0.7348   0.1318   0.7135   1
1334.255   0.6173   0.1226   0.6176   1
1334.285   0.5168   0.1137   0.5113   1
1334.315   0.4845   0.1109   0.4024   1
1334.345   0.3259   0.0941   0.2990   1
1334.375   0.1696   0.0746   0.2095   1
1334.405   0.0805   0.0588   0.1385   1
1334.435   0.0669   0.0517   0.0865   1
1334.465   0.0614   0.0551   0.0514   1
1334.494   0.0314   0.0446   0.0296   1
1334.524   0.0040   0.0376   0.0170   1
1334.554   -0.0073   0.0335   0.0099   1
1334.584   0.0101   0.0392   0.0060   1
1334.614   -0.0003   0.0355   0.0041   1
1334.644   0.0204   0.0411   0.0032   1
1334.674   0.0391   0.0464   0.0030   1
1334.704   -0.0067   0.0335   0.0033   1
1334.734   -0.0058   0.0338   0.0043   1
1334.763   0.0168   0.0399   0.0065   1
1334.793   0.0219   0.0430   0.0106   1
1334.823   0.0280   0.0430   0.0183   1
1334.853   0.0646   0.0544   0.0321   1
1334.883   0.0686   0.0562   0.0556   1
1334.913   0.1173   0.0656   0.0927   1
1334.943   0.1976   0.0783   0.1471   1
1334.973   0.2614   0.0873   0.2211   1
1335.002   0.3304   0.0953   0.3131   1
1335.032   0.4074   0.1037   0.4176   1
1335.062   0.3921   0.1019   0.5267   1
1335.092   0.6271   0.1234   0.6318   1
1335.122   0.6898   0.1284   0.7255   1
1335.152   0.8133   0.1376   0.8026   1
1335.182   0.8191   0.1380   0.8585   1
1335.212   0.8346   0.1394   0.8836   1
1335.241   0.8973   0.1437   0.8621   1
1335.271   0.7818   0.1355   0.7860   1
1335.301   0.6688   0.1271   0.6754   1
1335.331   0.5953   0.1209   0.5850   1
1335.361   0.5809   0.1196   0.5720   1
1335.391   0.6076   0.1220   0.6461   1
1335.421   0.8042   0.1371   0.7693   1
1335.451   0.8979   0.1439   0.8838   1
1335.481   0.9417   0.1467   0.9548   1
1335.510   0.9598   0.1479   0.9866   1
1335.540   0.9701   0.1485   0.9970   0
1335.570   0.7167   0.1307   0.9994   0
1335.600   0.6283   0.1237   0.9999   0
1335.630   0.4566   0.1083   1.0000   0
1335.660   0.3827   0.1014   1.0000   0
1335.690   0.3803   0.1012   1.0000   0
1335.720   0.5094   0.1128   1.0000   0
1335.749   0.6151   0.1229   1.0000   0
1335.779   0.7866   0.1360   1.0000   0
1335.809   0.7934   0.1367   1.0000   0
1335.839   0.7795   0.1353   1.0000   0
1335.869   0.6976   0.1294   1.0000   0
1335.899   0.7027   0.1299   1.0000   0
1335.929   0.7760   0.1354   1.0000   0
1335.959   0.8367   0.1400   1.0000   0
1335.988   0.7628   0.1341   1.0000   0
1336.018   0.6411   0.1252   1.0000   0
1336.048   0.7729   0.1354   1.0000   0
1336.078   0.7542   0.1339   1.0000   0
1336.108   0.6891   0.1290   1.0000   0
1336.138   0.7738   0.1353   1.0000   0
1336.168   0.6816   0.1283   1.0000   0
1336.198   0.7840   0.1360   1.0000   0
1336.228   0.8146   0.1384   1.0000   0
1336.257   0.8247   0.1394   1.0000   0
1336.287   0.8347   0.1400   1.0000   0
1336.317   0.8291   0.1395   1.0000   0
1336.347   0.9033   0.1448   1.0000   0
1336.377   0.9181   0.1458   1.0000   0
1336.407   1.0548   0.1549   1.0000   0
1336.437   0.9987   0.1513   1.0000   0
1336.467   0.9120   0.1455   1.0000   0
1336.496   1.0624   0.1554   1.0000   0
1336.526   1.0746   0.1562   1.0000   0
1336.556   1.1170   0.1588   1.0000   0
1336.586   1.1663   0.1617   1.0000   0
1336.616   1.1373   0.1600   1.0000   0
1336.646   1.2586   0.1671   1.0000   0
1336.676   1.0324   0.1535   1.0000   0
1336.706   0.9409   0.1475   1.0000   1
1336.735   0.9031   0.1452   1.0000   1
1336.765   1.1270   0.1597   1.0000   1
1336.795   0.8879   0.1439   1.0000   1
1336.825   1.0323   0.1539   1.0000   1
1336.855   1.1909   0.1628   1.0000   1
1336.885   1.0071   0.1520   1.0000   1
1336.915   1.0644   0.1552   1.0000   1
1336.945   1.0851   0.1573   1.0000   1
1336.975   1.1652   0.1622   1.0000   1
1337.004   1.0705   0.1563   1.0000   1
1337.034   0.9445   0.1478   1.0000   1
1337.064   1.0399   0.1541   1.0000   1
1337.094   0.9318   0.1479   1.0000   1
1337.124   1.1470   0.1629   1.0000   1
1337.154   1.0636   0.1579   1.0000   1
1337.184   1.1467   0.1639   1.0000   1
1337.214   1.0326   0.1567   1.0000   1
1337.243   1.1343   0.1631   1.0000   1
1337.273   1.0663   0.1581   1.0000   1
1337.303   1.0134   0.1543   1.0000   1
1337.333   1.0381   0.1565   1.0000   1
1337.363   1.1360   0.1631   1.0000   1
1337.393   1.0521   0.1586   1.0000   1
1337.423   1.0246   0.1570   1.0000   1
1337.453   1.2144   0.1693   1.0000   1
1337.482   1.0781   0.1594   1.0000   1
1337.512   1.0029   0.1552   1.0000   1
1337.542   1.0001   0.1534   1.0000   1
1337.572   0.9468   0.1489   1.0000   1
1337.602   1.1513   0.1606   1.0000   1
1337.632   1.0904   0.1581   1.0000   1
1337.662   1.1143   0.1610   1.0000   1
1337.692   0.9614   0.1516   1.0000   1
1337.721   0.9377   0.1511   1.0000   1
1337.751   0.9590   0.1523   1.0000   1
1337.781   1.0962   0.1610   1.0000   1
1337.811   0.9644   0.1526   1.0000   1
1337.841   1.0091   0.1563   1.0000   1
1337.871   1.0843   0.1599   1.0000   1
1337.901   0.9909   0.1541   1.0000   1
1337.931   0.9843   0.1536   1.0000   1
1337.960   0.9164   0.1484   1.0000   1
1337.990   1.0865   0.1603   1.0000   1
1338.020   0.9741   0.1526   1.0000   1
1338.050   1.0756   0.1586   1.0000   1
1338.080   0.9766   0.1529   1.0000   1
1338.110   1.0891   0.1594   1.0000   1
1338.140   1.0017   0.1530   1.0000   1
1338.170   1.2005   0.1645   1.0000   1
1338.200   1.0472   0.1552   1.0000   1
1338.229   0.9813   0.1505   1.0000   1
1338.259   0.9327   0.1476   1.0000   1
1338.289   1.0432   0.1551   1.0000   1
1338.319   1.0705   0.1567   1.0000   1
1338.349   1.1260   0.1600   1.0000   1
1338.379   0.8304   0.1406   1.0000   1
1338.409   1.0936   0.1582   1.0000   1
1338.439   0.9635   0.1497   1.0000   1
1338.468   1.0065   0.1527   1.0000   1
1338.498   0.9194   0.1462   1.0000   1
1338.528   0.9632   0.1497   1.0000   1
1338.558   1.1047   0.1586   1.0000   1
1338.588   1.1178   0.1595   1.0000   1
1338.618   0.9640   0.1497   1.0000   1
1338.648   1.1083   0.1590   1.0000   1
1338.678   0.8646   0.1431   1.0000   1
1338.707   0.9648   0.1501   1.0000   1
1338.737   1.0534   0.1558   1.0000   1
1338.767   0.8493   0.1422   1.0000   1
1338.797   0.8277   0.1407   1.0000   1
1338.827   0.8137   0.1397   1.0000   1
1338.857   0.7848   0.1372   1.0000   1
1338.887   0.8616   0.1430   1.0000   1
1338.917   0.8038   0.1387   1.0000   1
1338.946   0.8272   0.1406   1.0000   1
1338.976   0.8213   0.1396   1.0000   1
