# Best-fit normalized data and profile from VoigtFit
# column 1 : Wavelength
# column 2 : Normalized flux
# column 3 : Normalized error
# column 4 : Best-fit profile
# column 5 : Pixel mask, 1=included, 0=excluded
1544.586   0.7269   0.1384   1.0000   1
1544.623   0.7560   0.1417   1.0000   0
1544.659   0.7264   0.1358   1.0000   0
1544.696   0.6635   0.1340   1.0000   0
1544.733   0.8994   0.1525   1.0000   0
1544.769   0.8264   0.1473   1.0000   0
1544.806   0.8780   0.1506   1.0000   0
1544.843   0.8666   0.1495   1.0000   0
1544.880   0.7399   0.1398   1.0000   0
1544.916   0.7802   0.1394   1.0000   0
1544.953   0.8471   0.1485   1.0000   0
1544.990   0.7758   0.1423   1.0000   0
1545.026   0.5705   0.1247   1.0000   0
1545.063   0.6125   0.1302   1.0000   0
1545.100   0.4279   0.1121   1.0000   0
1545.137   0.4980   0.1208   1.0000   0
1545.173   0.3330   0.1020   1.0000   0
1545.210   0.3421   0.1020   1.0000   0
1545.247   0.3390   0.0996   1.0000   0
1545.283   0.3831   0.1067   1.0000   0
1545.320   0.5563   0.1237   1.0000   0
1545.357   0.6359   0.1310   1.0000   0
1545.394   0.5647   0.1237   1.0000   0
1545.430   0.6768   0.1352   1.0000   0
1545.467   0.7064   0.1370   1.0000   0
1545.504   0.8647   0.1495   1.0000   0
1545.540   0.9552   0.1551   1.0000   0
1545.577   1.0274   0.1608   1.0000   0
1545.614   0.9730   0.1555   1.0000   0
1545.651   0.9941   0.1582   1.0000   0
1545.687   0.9682   0.1565   1.0000   0
1545.724   0.9482   0.1547   1.0000   0
1545.761   0.9695   0.1528   1.0000   0
1545.797   1.0276   0.1585   1.0000   0
1545.834   0.9498   0.1552   1.0000   0
1545.871   1.1038   0.1656   1.0000   0
1545.908   0.9221   0.1533   1.0000   1
1545.944   1.2230   0.1725   1.0000   1
1545.981   1.0343   0.1612   1.0000   1
1546.018   1.0333   0.1615   1.0000   1
1546.055   1.0416   0.1608   1.0000   1
1546.091   0.9637   0.1566   1.0000   1
1546.128   1.0095   0.1598   1.0000   1
1546.165   1.0408   0.1618   1.0000   1
1546.201   0.9823   0.1574   1.0000   1
1546.238   0.9364   0.1549   1.0000   1
1546.275   1.0774   0.1638   1.0000   1
1546.312   0.9495   0.1550   1.0000   1
1546.348   0.9283   0.1536   1.0000   1
1546.385   1.0677   0.1610   1.0000   1
1546.422   1.0820   0.1645   1.0000   1
1546.458   1.0887   0.1648   1.0000   1
1546.495   1.1123   0.1645   1.0000   1
1546.532   1.0422   0.1613   1.0000   1
1546.569   1.1182   0.1668   1.0000   1
1546.605   0.9686   0.1558   1.0000   1
1546.642   1.0706   0.1642   1.0000   1
1546.679   1.0781   0.1646   1.0000   1
1546.715   1.2034   0.1720   1.0000   1
1546.752   1.1115   0.1658   0.9998   1
1546.789   1.0365   0.1591   0.9993   1
1546.826   0.9824   0.1581   0.9975   1
1546.862   1.0671   0.1631   0.9929   1
1546.899   0.9018   0.1517   0.9820   1
1546.936   1.0177   0.1603   0.9598   1
1546.972   1.0169   0.1603   0.9228   1
1547.009   0.9313   0.1543   0.8721   1
1547.046   0.8148   0.1459   0.8152   1
1547.083   0.8563   0.1488   0.7659   1
1547.119   0.7910   0.1416   0.7389   1
1547.156   0.7247   0.1383   0.7425   1
1547.193   0.7500   0.1414   0.7750   1
1547.229   0.8713   0.1498   0.8266   1
1547.266   0.8929   0.1503   0.8827   1
1547.303   0.9616   0.1562   0.9279   1
1547.340   0.8580   0.1465   0.9499   1
1547.376   0.9837   0.1580   0.9407   1
1547.413   0.8468   0.1481   0.8991   1
1547.450   0.8564   0.1483   0.8402   1
1547.486   0.8102   0.1450   0.7955   1
1547.523   0.7453   0.1397   0.7916   1
1547.560   0.8512   0.1461   0.8232   1
1547.597   0.8818   0.1490   0.8614   1
1547.633   0.8877   0.1519   0.8789   1
1547.670   0.8654   0.1504   0.8702   1
1547.707   0.8026   0.1442   0.8483   1
1547.744   0.7726   0.1431   0.8300   1
1547.780   0.8336   0.1485   0.8238   1
1547.817   0.8661   0.1498   0.8301   1
1547.854   0.8109   0.1454   0.8422   1
1547.890   0.8361   0.1478   0.8494   1
1547.927   0.7900   0.1445   0.8411   1
1547.964   0.7599   0.1421   0.8115   1
1548.001   0.9063   0.1532   0.7608   1
1548.037   0.7061   0.1363   0.6946   1
1548.074   0.6673   0.1332   0.6218   1
1548.111   0.6271   0.1324   0.5523   1
1548.147   0.5603   0.1259   0.4936   1
1548.184   0.4424   0.1140   0.4510   1
1548.221   0.3521   0.1039   0.4272   1
1548.258   0.4408   0.1146   0.4237   1
1548.294   0.4725   0.1166   0.4410   1
1548.331   0.5348   0.1255   0.4779   1
1548.368   0.5886   0.1311   0.5321   1
1548.404   0.6105   0.1291   0.5998   1
1548.441   0.6749   0.1374   0.6753   1
1548.478   0.6833   0.1382   0.7511   1
1548.515   0.8047   0.1483   0.8203   1
1548.551   0.8383   0.1489   0.8782   1
1548.588   0.9282   0.1559   0.9224   1
1548.625   0.9668   0.1576   0.9537   1
1548.661   0.8955   0.1521   0.9739   1
1548.698   1.0576   0.1630   0.9861   1
1548.735   0.8796   0.1508   0.9930   1
1548.772   1.0274   0.1615   0.9967   1
1548.808   1.0119   0.1602   0.9985   1
1548.845   1.0347   0.1619   0.9994   1
1548.882   1.0864   0.1651   0.9997   1
1548.918   1.0642   0.1629   0.9999   1
1548.955   0.9880   0.1586   1.0000   1
1548.992   0.9464   0.1558   1.0000   1
1549.029   1.0262   0.1614   1.0000   1
1549.065   0.9548   0.1562   1.0000   1
1549.102   0.9714   0.1569   1.0000   1
1549.139   0.9212   0.1541   1.0000   1
1549.176   0.9769   0.1579   1.0000   1
1549.212   0.9287   0.1529   1.0000   1
1549.249   0.8951   0.1521   1.0000   1
1549.286   0.9920   0.1588   1.0000   1
1549.322   0.9320   0.1548   0.9999   1
1549.359   1.0586   0.1622   0.9998   1
1549.396   1.0482   0.1622   0.9992   1
1549.433   0.9950   0.1591   0.9975   1
1549.469   0.9111   0.1515   0.9932   1
1549.506   0.9658   0.1571   0.9842   1
1549.543   0.8712   0.1502   0.9679   1
1549.579   0.8325   0.1479   0.9436   1
1549.616   0.8228   0.1458   0.9133   1
1549.653   0.7724   0.1420   0.8837   1
1549.690   0.8559   0.1484   0.8634   1
1549.726   0.8212   0.1456   0.8589   1
1549.763   0.8770   0.1514   0.8718   1
1549.800   0.8313   0.1478   0.8977   1
1549.836   0.8998   0.1520   0.9285   1
1549.873   0.9913   0.1592   0.9554   1
1549.910   1.0418   0.1608   0.9720   1
1549.947   1.0174   0.1603   0.9736   1
1549.983   0.9717   0.1557   0.9578   1
1550.020   0.9324   0.1534   0.9280   1
1550.057   0.8849   0.1510   0.8990   1
1550.093   1.0036   0.1606   0.8878   1
1550.130   0.8279   0.1461   0.8992   1
1550.167   0.8871   0.1513   0.9210   1
1550.204   0.9316   0.1548   0.9360   1
1550.240   0.9859   0.1585   0.9358   1
1550.277   0.9592   0.1558   0.9256   1
1550.314   0.9974   0.1598   0.9142   1
1550.350   0.8844   0.1515   0.9080   1
1550.387   1.0023   0.1571   0.9090   1
1550.424   0.8595   0.1489   0.9151   1
1550.461   1.0505   0.1625   0.9208   1
1550.497   0.9480   0.1563   0.9201   1
1550.534   0.8834   0.1496   0.9086   1
1550.571   0.8214   0.1470   0.8845   1
1550.608   0.9134   0.1537   0.8489   1
1550.644   0.7393   0.1403   0.8056   1
1550.681   0.6297   0.1291   0.7598   1
1550.718   0.7392   0.1405   0.7169   1
1550.754   0.5942   0.1275   0.6819   1
1550.791   0.5813   0.1260   0.6587   1
1550.828   0.6951   0.1383   0.6503   1
1550.865   0.6346   0.1339   0.6570   1
1550.901   0.6613   0.1338   0.6782   1
1550.938   0.6743   0.1343   0.7118   1
1550.975   0.7635   0.1430   0.7542   1
1551.011   0.8158   0.1482   0.8011   1
1551.048   0.9521   0.1572   0.8476   1
1551.085   0.8526   0.1491   0.8896   1
1551.122   0.9723   0.1585   0.9245   1
1551.158   0.9543   0.1585   0.9514   1
1551.195   0.9047   0.1530   0.9705   1
1551.232   0.9860   0.1592   0.9830   1
1551.268   0.9433   0.1561   0.9908   1
1551.305   1.1516   0.1695   0.9953   1
1551.342   0.8063   0.1458   0.9977   1
1551.379   0.8885   0.1516   0.9990   1
1551.415   0.9252   0.1544   0.9995   1
1551.452   1.0853   0.1673   0.9998   1
1551.489   0.9553   0.1579   0.9999   1
1551.525   1.0646   0.1669   1.0000   1
1551.562   1.0135   0.1638   1.0000   1
1551.599   0.8663   0.1528   1.0000   1
1551.636   0.9427   0.1580   1.0000   1
1551.672   0.9799   0.1616   1.0000   1
1551.709   0.8662   0.1531   1.0000   1
1551.746   0.9209   0.1563   1.0000   1
1551.782   0.9919   0.1616   1.0000   1
1551.819   1.0093   0.1630   1.0000   1
1551.856   0.8665   0.1525   1.0000   1
1551.893   0.9165   0.1567   1.0000   1
1551.929   0.8765   0.1541   1.0000   1
1551.966   0.9710   0.1594   1.0000   1
1552.003   0.9037   0.1539   1.0000   1
1552.039   0.9398   0.1566   1.0000   1
1552.076   1.0304   0.1619   1.0000   1
1552.113   0.9960   0.1593   1.0000   1
1552.150   1.2657   0.1774   1.0000   1
1552.186   0.8906   0.1521   1.0000   1
1552.223   1.0096   0.1607   1.0000   1
1552.260   0.9996   0.1591   1.0000   1
1552.297   1.1731   0.1716   1.0000   1
1552.333   1.1266   0.1685   1.0000   1
1552.370   1.0659   0.1643   1.0000   1
1552.407   0.9994   0.1603   1.0000   1
1552.443   0.9899   0.1582   1.0000   1
1552.480   0.9873   0.1583   1.0000   1
1552.517   1.0017   0.1601   1.0000   1
1552.554   1.0634   0.1635   1.0000   1
1552.590   0.9455   0.1561   1.0000   1
1552.627   0.9651   0.1579   1.0000   1
1552.664   0.9827   0.1583   1.0000   1
1552.700   1.0664   0.1635   1.0000   1
1552.737   1.0234   0.1619   1.0000   1
1552.774   0.9517   0.1566   1.0000   1
1552.811   0.9156   0.1539   1.0000   1
1552.847   1.0274   0.1624   1.0000   1
1552.884   1.0524   0.1629   1.0000   1
1552.921   1.0479   0.1636   1.0000   1
1552.957   0.9433   0.1568   1.0000   1
1552.994   0.9608   0.1582   1.0000   1
1553.031   1.0637   0.1642   1.0000   1
1553.068   1.0070   0.1604   1.0000   1
1553.104   1.0106   0.1609   1.0000   1
1553.141   1.1473   0.1685   1.0000   1
1553.178   1.1277   0.1665   1.0000   1
1553.214   1.0599   0.1643   1.0000   1
1553.251   1.0551   0.1634   1.0000   1
1553.288   1.0688   0.1652   1.0000   1
1553.325   1.0974   0.1671   1.0000   1
1553.361   1.0362   0.1637   1.0000   1
1553.398   1.1436   0.1702   1.0000   1
1553.435   1.0442   0.1630   1.0000   1
1553.471   1.1738   0.1722   1.0000   1
1553.508   1.0526   0.1637   1.0000   1
1553.545   1.0210   0.1617   1.0000   1
1553.582   0.9766   0.1586   1.0000   1
1553.618   1.1122   0.1685   1.0000   1
1553.655   1.0453   0.1618   1.0000   1
1553.692   1.1056   0.1676   1.0000   1
1553.729   1.0400   0.1634   1.0000   1
1553.765   0.8552   0.1505   1.0000   1
1553.802   0.9010   0.1535   1.0000   1
1553.839   0.8768   0.1515   1.0000   1
1553.875   1.0126   0.1613   1.0000   1
1553.912   0.9632   0.1575   1.0000   1
1553.949   1.0575   0.1634   1.0000   1
1553.986   0.9667   0.1582   1.0000   1
1554.022   0.9340   0.1560   1.0000   1
1554.059   0.9444   0.1567   1.0000   1
1554.096   1.0600   0.1652   1.0000   1
1554.132   1.0394   0.1644   1.0000   1
1554.169   1.0051   0.1623   1.0000   1
1554.206   0.9950   0.1615   1.0000   1
1554.243   1.0331   0.1642   1.0000   1
1554.279   1.1170   0.1700   1.0000   1
1554.316   1.0348   0.1646   1.0000   1
1554.353   1.0544   0.1658   1.0000   1
1554.389   0.9352   0.1554   1.0000   1
