# Best-fit normalized data and profile from VoigtFit
# column 1 : Wavelength
# column 2 : Normalized flux
# column 3 : Normalized error
# column 4 : Best-fit profile
# column 5 : Pixel mask, 1=included, 0=excluded
1202.497   1.0177   0.0771   1.0000   1
1202.527   0.9667   0.0755   1.0000   1
1202.557   0.9392   0.0745   1.0000   1
1202.587   0.9449   0.0747   1.0000   1
1202.617   1.0546   0.0786   1.0000   1
1202.647   0.9909   0.0765   1.0000   1
1202.677   0.9795   0.0761   1.0000   1
1202.707   0.9561   0.0752   1.0000   1
1202.737   0.9652   0.0756   1.0000   1
1202.766   0.9902   0.0765   1.0000   1
1202.796   1.0824   0.0797   1.0000   1
1202.826   1.0614   0.0790   1.0000   1
1202.856   1.0092   0.0773   1.0000   1
1202.886   1.0319   0.0781   1.0000   1
1202.916   1.0175   0.0776   1.0000   1
1202.946   0.9406   0.0748   1.0000   1
1202.976   0.9929   0.0768   1.0000   1
1203.005   0.9015   0.0735   1.0000   1
1203.035   0.9400   0.0749   1.0000   1
1203.065   0.9652   0.0758   1.0000   1
1203.095   0.9562   0.0755   1.0000   1
1203.125   0.9367   0.0749   1.0000   1
1203.155   0.9570   0.0756   1.0000   1
1203.185   0.9849   0.0767   1.0000   1
1203.215   0.9890   0.0768   1.0000   1
1203.245   0.9476   0.0754   1.0000   1
1203.274   1.0091   0.0776   1.0000   1
1203.304   0.8978   0.0735   1.0000   1
1203.334   0.9329   0.0749   1.0000   1
1203.364   1.0443   0.0789   1.0000   1
1203.394   1.0895   0.0805   1.0000   1
1203.424   1.0036   0.0775   1.0000   1
1203.454   0.9353   0.0750   1.0000   1
1203.484   0.9994   0.0774   1.0000   1
1203.514   0.9600   0.0760   1.0000   1
1203.543   1.0691   0.0799   1.0000   1
1203.573   0.9585   0.0760   1.0000   1
1203.603   0.9287   0.0750   1.0000   1
1203.633   0.9885   0.0772   1.0000   1
1203.663   1.0193   0.0783   1.0000   1
1203.693   1.0132   0.0781   1.0000   1
1203.723   0.9405   0.0755   1.0000   1
1203.753   0.9170   0.0746   1.0000   1
1203.783   0.9480   0.0758   1.0000   1
1203.812   0.9451   0.0757   1.0000   1
1203.842   0.9293   0.0751   1.0000   1
1203.872   0.9952   0.0776   1.0000   1
1203.902   1.0365   0.0790   1.0000   1
1203.932   0.9892   0.0774   1.0000   1
1203.962   1.0571   0.0799   1.0000   1
1203.992   1.0274   0.0789   1.0000   1
1204.022   0.9865   0.0774   1.0000   1
1204.051   1.0195   0.0786   1.0000   1
1204.081   0.9322   0.0755   1.0000   1
1204.111   0.9867   0.0775   1.0000   1
1204.141   1.0022   0.0781   1.0000   1
1204.171   0.9682   0.0769   1.0000   1
1204.201   1.0008   0.0781   1.0000   1
1204.231   1.0540   0.0800   1.0000   1
1204.261   0.9789   0.0774   1.0000   1
1204.291   1.0721   0.0807   1.0000   1
1204.320   1.0629   0.0804   1.0000   1
1204.350   1.0007   0.0782   1.0000   1
1204.380   1.0295   0.0793   1.0000   1
1204.410   1.0001   0.0782   1.0000   1
1204.440   0.9531   0.0766   1.0000   1
1204.470   0.9762   0.0774   1.0000   1
1204.500   0.9267   0.0756   1.0000   1
1204.530   0.9904   0.0780   1.0000   1
1204.560   0.9495   0.0765   1.0000   1
1204.589   0.9931   0.0782   1.0000   1
1204.619   1.0178   0.0791   1.0000   1
1204.649   1.0424   0.0799   1.0000   1
1204.679   1.0178   0.0791   1.0000   1
1204.709   0.9998   0.0785   1.0000   1
1204.739   1.0486   0.0802   1.0000   1
1204.769   1.0366   0.0799   1.0000   1
1204.799   1.0297   0.0797   1.0000   1
1204.829   1.0006   0.0786   1.0000   1
1204.858   1.0030   0.0787   1.0000   1
1204.888   0.9630   0.0772   1.0000   1
1204.918   1.0946   0.0821   0.9999   1
1204.948   0.9939   0.0785   0.9999   1
1204.978   1.0244   0.0796   0.9999   1
1205.008   1.0693   0.0812   0.9999   1
1205.038   1.0480   0.0805   0.9999   1
1205.068   0.9973   0.0787   0.9999   1
1205.097   1.0923   0.0822   0.9999   1
1205.127   0.9605   0.0774   0.9999   1
1205.157   1.0517   0.0808   0.9998   1
1205.187   0.9247   0.0761   0.9993   1
1205.217   1.0584   0.0810   0.9968   1
1205.247   0.8987   0.0752   0.9869   1
1205.277   1.0144   0.0795   0.9551   1
1205.307   0.8622   0.0737   0.8769   1
1205.337   0.7454   0.0690   0.7377   1
1205.366   0.5362   0.0594   0.5572   1
1205.396   0.3817   0.0511   0.3897   1
1205.426   0.3322   0.0482   0.2895   1
1205.456   0.2756   0.0443   0.2856   1
1205.486   0.3459   0.0491   0.3756   1
1205.516   0.5484   0.0602   0.5371   1
1205.546   0.7371   0.0688   0.7196   1
1205.576   0.8857   0.0750   0.8659   1
1205.606   0.9394   0.0771   0.9488   1
1205.635   0.9918   0.0794   0.9845   1
1205.665   0.9700   0.0790   0.9962   1
1205.695   1.0663   0.0833   0.9991   1
1205.725   1.0566   0.0829   0.9997   1
1205.755   1.0909   0.0839   0.9997   1
1205.785   1.0436   0.0817   0.9996   1
1205.815   0.9997   0.0803   0.9994   1
1205.845   1.0603   0.0824   0.9989   1
1205.875   0.9729   0.0796   0.9980   1
1205.904   0.9467   0.0784   0.9963   1
1205.934   0.9719   0.0795   0.9931   1
1205.964   0.9442   0.0787   0.9876   1
1205.994   0.9534   0.0789   0.9782   1
1206.024   0.9281   0.0779   0.9629   1
1206.054   0.9035   0.0767   0.9388   1
1206.084   0.9647   0.0789   0.9023   1
1206.114   0.9297   0.0776   0.8504   1
1206.143   0.8353   0.0736   0.7808   1
1206.173   0.8090   0.0724   0.6930   1
1206.203   0.6484   0.0654   0.5900   1
1206.233   0.5110   0.0588   0.4783   1
1206.263   0.3183   0.0476   0.3673   1
1206.293   0.1843   0.0377   0.2664   1
1206.323   0.1298   0.0329   0.1824   1
1206.353   0.1248   0.0325   0.1185   1
1206.383   0.1101   0.0307   0.0743   1
1206.412   0.0678   0.0259   0.0457   1
1206.442   0.0618   0.0246   0.0283   1
1206.472   0.0416   0.0204   0.0183   1
1206.502   0.0219   0.0177   0.0128   1
1206.532   0.0232   0.0179   0.0101   1
1206.562   0.0260   0.0178   0.0093   1
1206.592   0.0186   0.0168   0.0101   1
1206.622   0.0295   0.0192   0.0127   1
1206.652   0.0453   0.0225   0.0180   1
1206.681   0.0305   0.0191   0.0278   1
1206.711   0.0542   0.0241   0.0450   1
1206.741   0.0702   0.0262   0.0733   1
1206.771   0.0930   0.0292   0.1171   1
1206.801   0.1550   0.0356   0.1799   1
1206.831   0.2560   0.0442   0.2629   1
1206.861   0.3075   0.0482   0.3637   1
1206.891   0.4613   0.0577   0.4746   1
1206.920   0.6348   0.0664   0.5863   1
1206.950   0.7114   0.0700   0.6898   1
1206.980   0.8550   0.0761   0.7784   1
1207.010   0.9140   0.0784   0.8486   1
1207.040   0.9563   0.0800   0.9008   1
1207.070   0.9986   0.0816   0.9375   1
1207.100   1.0207   0.0824   0.9622   1
1207.130   0.9580   0.0806   0.9779   1
1207.160   0.9872   0.0815   0.9874   1
1207.189   1.0115   0.0823   0.9930   1
1207.219   1.0086   0.0822   0.9962   1
1207.249   1.0223   0.0825   0.9980   1
1207.279   1.0442   0.0828   0.9989   1
1207.309   1.0313   0.0821   0.9994   1
1207.339   1.0559   0.0831   0.9997   1
1207.369   1.0484   0.0829   0.9998   1
1207.399   1.0489   0.0829   0.9999   1
1207.429   1.0452   0.0827   0.9999   1
1207.458   1.0918   0.0845   0.9999   1
1207.488   1.0734   0.0838   0.9999   1
1207.518   1.0508   0.0831   0.9999   1
1207.548   1.0403   0.0828   0.9999   1
1207.578   1.0783   0.0842   0.9999   1
1207.608   1.0294   0.0824   0.9999   1
1207.638   0.9890   0.0809   0.9999   1
1207.668   1.0702   0.0840   0.9999   1
1207.698   0.9997   0.0814   0.9999   1
1207.727   1.0535   0.0834   0.9999   1
1207.757   1.0968   0.0850   1.0000   1
1207.787   1.1160   0.0858   1.0000   1
1207.817   1.1027   0.0853   1.0000   1
1207.847   1.0224   0.0824   1.0000   1
1207.877   1.0667   0.0841   1.0000   1
1207.907   0.9626   0.0802   1.0000   1
1207.937   1.0468   0.0834   1.0000   1
1207.966   1.0531   0.0838   1.0000   1
1207.996   0.9941   0.0826   1.0000   1
1208.026   1.0339   0.0842   1.0000   1
1208.056   1.0001   0.0834   1.0000   1
1208.086   0.9804   0.0825   1.0000   1
1208.116   0.9243   0.0799   1.0000   1
1208.146   1.0879   0.0861   1.0000   1
1208.176   1.0577   0.0852   1.0000   1
1208.206   1.0348   0.0846   1.0000   1
1208.235   1.0371   0.0849   1.0000   1
1208.265   1.0634   0.0859   1.0000   1
1208.295   1.0298   0.0847   1.0000   1
1208.325   1.0376   0.0855   1.0000   1
1208.355   1.0323   0.0851   1.0000   1
1208.385   0.9401   0.0813   1.0000   1
1208.415   1.0421   0.0846   1.0000   1
1208.445   1.0333   0.0839   1.0000   1
1208.475   0.9675   0.0810   1.0000   1
1208.504   1.0589   0.0846   1.0000   1
1208.534   1.0989   0.0860   1.0000   1
1208.564   1.0469   0.0842   1.0000   1
1208.594   1.0354   0.0837   1.0000   1
1208.624   1.0547   0.0845   1.0000   1
1208.654   0.9798   0.0816   1.0000   1
1208.684   0.9924   0.0822   1.0000   1
1208.714   1.0404   0.0841   1.0000   1
1208.744   1.0045   0.0828   1.0000   1
1208.773   1.0388   0.0840   1.0000   1
1208.803   1.0566   0.0848   1.0000   1
1208.833   1.0280   0.0837   1.0000   1
1208.863   1.0412   0.0843   1.0000   1
1208.893   0.9790   0.0820   1.0000   1
1208.923   1.0497   0.0846   1.0000   1
1208.953   1.0541   0.0849   1.0000   1
1208.983   1.0811   0.0859   1.0000   1
1209.013   0.9453   0.0807   1.0000   1
1209.042   0.9392   0.0805   1.0000   1
1209.072   1.0683   0.0855   1.0000   1
1209.102   0.9904   0.0827   1.0000   1
1209.132   1.0010   0.0830   1.0000   1
1209.162   0.9802   0.0823   1.0000   1
1209.192   0.9127   0.0797   1.0000   1
1209.222   1.0067   0.0838   1.0000   1
1209.252   1.0143   0.0846   1.0000   1
1209.281   1.0097   0.0851   1.0000   1
1209.311   0.9365   0.0824   1.0000   1
1209.341   0.9606   0.0831   1.0000   1
1209.371   0.9939   0.0845   1.0000   1
1209.401   0.9501   0.0830   1.0000   1
1209.431   1.0178   0.0859   1.0000   1
1209.461   1.0410   0.0868   1.0000   1
1209.491   0.9900   0.0841   1.0000   1
1209.521   0.9314   0.0816   1.0000   1
1209.550   0.9910   0.0844   1.0000   1
1209.580   0.9565   0.0831   1.0000   1
1209.610   0.9794   0.0842   1.0000   1
1209.640   1.0480   0.0871   1.0000   1
1209.670   0.9359   0.0828   1.0000   1
1209.700   1.0198   0.0856   1.0000   1
1209.730   1.0325   0.0854   1.0000   1
1209.760   0.9908   0.0836   1.0000   1
1209.790   0.9265   0.0808   1.0000   1
1209.819   0.9734   0.0827   1.0000   1
1209.849   1.0003   0.0839   1.0000   1
1209.879   0.9488   0.0819   1.0000   1
1209.909   1.0311   0.0852   1.0000   1
1209.939   1.0541   0.0861   1.0000   1
1209.969   1.0250   0.0850   1.0000   1
1209.999   0.9259   0.0811   1.0000   1
1210.029   0.9693   0.0829   1.0000   1
1210.059   1.0518   0.0861   1.0000   1
1210.088   0.9464   0.0820   1.0000   1
1210.118   0.9073   0.0805   1.0000   1
1210.148   0.9611   0.0828   1.0000   1
1210.178   0.9268   0.0814   1.0000   1
1210.208   0.8762   0.0793   1.0000   1
1210.238   0.9427   0.0821   1.0000   1
1210.268   0.9087   0.0807   1.0000   1
1210.298   0.8707   0.0791   1.0000   1
1210.327   0.9681   0.0832   1.0000   1
1210.357   0.9289   0.0817   1.0000   1
1210.387   0.9304   0.0818   1.0000   1
1210.417   0.8383   0.0780   1.0000   1
1210.447   0.8804   0.0798   1.0000   1
1210.477   0.9311   0.0819   1.0000   1
1210.507   0.9778   0.0839   1.0000   1
