# Best-fit normalized data and profile from VoigtFit
# column 1 : Wavelength
# column 2 : Normalized flux
# column 3 : Normalized error
# column 4 : Best-fit profile
# column 5 : Pixel mask, 1=included, 0=excluded
1256.241   0.9112   0.0730   1.0000   1
1256.270   0.9439   0.0741   1.0000   1
1256.300   0.9733   0.0751   1.0000   1
1256.330   0.9906   0.0758   1.0000   1
1256.360   1.0284   0.0770   1.0000   1
1256.390   0.9900   0.0757   1.0000   1
1256.420   1.0443   0.0776   1.0000   1
1256.450   0.9237   0.0733   1.0000   1
1256.480   1.0160   0.0766   1.0000   1
1256.509   0.9980   0.0759   1.0000   1
1256.539   1.1117   0.0797   1.0000   1
1256.569   1.0535   0.0778   1.0000   1
1256.599   0.9880   0.0754   1.0000   1
1256.629   1.0081   0.0761   1.0000   1
1256.659   1.0761   0.0785   1.0000   1
1256.689   1.0484   0.0775   1.0000   1
1256.719   1.0301   0.0769   1.0000   1
1256.748   0.9638   0.0745   1.0000   1
1256.778   1.1048   0.0794   1.0000   1
1256.808   1.0285   0.0768   1.0000   1
1256.838   1.0146   0.0762   1.0000   1
1256.868   0.9829   0.0750   1.0000   1
1256.898   0.9929   0.0754   1.0000   1
1256.928   0.9615   0.0743   1.0000   1
1256.958   1.0193   0.0763   1.0000   1
1256.987   1.0432   0.0773   1.0000   1
1257.017   0.9426   0.0743   1.0000   1
1257.047   0.9827   0.0764   1.0000   1
1257.077   1.0223   0.0780   1.0000   1
1257.107   0.9928   0.0769   1.0000   1
1257.137   1.0293   0.0783   1.0000   1
1257.167   0.9262   0.0742   1.0000   1
1257.197   0.9819   0.0759   1.0000   1
1257.226   1.0542   0.0785   1.0000   1
1257.256   0.9995   0.0767   1.0000   1
1257.286   1.0115   0.0770   1.0000   1
1257.316   1.0736   0.0794   1.0000   1
1257.346   0.9730   0.0758   1.0000   1
1257.376   1.1041   0.0805   1.0000   1
1257.406   0.9837   0.0759   1.0000   1
1257.435   1.0300   0.0768   1.0000   1
1257.465   1.0446   0.0768   1.0000   1
1257.495   1.0452   0.0768   1.0000   1
1257.525   0.9340   0.0729   1.0000   1
1257.555   1.0043   0.0753   1.0000   1
1257.585   0.9721   0.0742   1.0000   1
1257.615   0.9954   0.0750   1.0000   1
1257.645   0.9502   0.0733   1.0000   1
1257.674   1.0452   0.0766   1.0000   1
1257.704   0.9463   0.0732   1.0000   1
1257.734   1.0323   0.0762   1.0000   1
1257.764   1.0090   0.0754   1.0000   1
1257.794   0.9830   0.0745   1.0000   1
1257.824   0.9327   0.0726   1.0000   1
1257.854   0.9504   0.0732   1.0000   1
1257.884   0.9419   0.0729   1.0000   1
1257.913   1.0299   0.0760   1.0000   1
1257.943   0.9503   0.0732   1.0000   1
1257.973   1.0332   0.0761   1.0000   1
1258.003   0.9764   0.0741   1.0000   1
1258.033   1.0091   0.0752   1.0000   1
1258.063   1.0135   0.0754   1.0000   1
1258.093   0.9547   0.0732   1.0000   1
1258.123   0.9321   0.0724   1.0000   1
1258.152   0.9876   0.0743   1.0000   1
1258.182   0.9243   0.0720   1.0000   1
1258.212   1.0022   0.0748   1.0000   1
1258.242   0.9615   0.0735   1.0000   1
1258.272   0.9507   0.0736   1.0000   1
1258.302   1.0314   0.0773   1.0000   1
1258.332   1.0577   0.0783   1.0000   1
1258.362   1.0340   0.0775   1.0000   1
1258.391   0.9851   0.0756   1.0000   1
1258.421   1.0501   0.0776   1.0000   1
1258.451   1.0432   0.0765   1.0000   1
1258.481   1.0196   0.0758   1.0000   1
1258.511   1.0254   0.0765   1.0000   1
1258.541   0.9924   0.0755   1.0000   1
1258.571   0.9819   0.0750   1.0000   1
1258.600   0.9999   0.0757   1.0000   1
1258.630   1.0047   0.0752   1.0000   1
1258.660   1.0324   0.0758   1.0000   1
1258.690   1.0915   0.0775   1.0000   1
1258.720   1.0161   0.0749   0.9999   1
1258.750   0.9352   0.0721   0.9999   1
1258.780   0.9729   0.0733   0.9999   1
1258.810   0.9668   0.0732   0.9999   1
1258.839   1.0123   0.0747   0.9999   1
1258.869   1.0426   0.0758   0.9999   1
1258.899   1.0454   0.0758   0.9999   1
1258.929   0.9697   0.0732   0.9999   1
1258.959   1.0714   0.0767   0.9999   1
1258.989   0.9939   0.0740   0.9999   1
1259.019   0.9281   0.0717   0.9999   1
1259.049   0.9583   0.0726   0.9999   1
1259.078   0.9633   0.0728   0.9999   1
1259.108   0.9950   0.0740   0.9999   1
1259.138   1.0186   0.0747   0.9999   1
1259.168   0.9665   0.0729   0.9999   1
1259.198   0.9367   0.0718   0.9999   1
1259.228   0.9338   0.0717   0.9999   0
1259.258   0.9636   0.0728   0.9999   0
1259.288   0.8053   0.0669   0.9999   0
1259.317   0.7681   0.0656   0.9999   0
1259.347   0.7159   0.0636   0.9999   0
1259.377   0.6082   0.0593   0.9999   0
1259.407   0.4653   0.0524   0.9999   0
1259.437   0.2867   0.0429   0.9998   0
1259.467   0.2576   0.0408   0.9998   0
1259.497   0.1996   0.0364   0.9998   0
1259.527   0.2558   0.0407   0.9998   0
1259.556   0.3652   0.0471   0.9998   0
1259.586   0.5412   0.0564   0.9997   0
1259.616   0.6022   0.0592   0.9996   0
1259.646   0.6983   0.0632   0.9995   0
1259.676   0.7505   0.0655   0.9991   0
1259.706   0.8093   0.0679   0.9985   0
1259.736   0.8448   0.0696   0.9973   0
1259.766   0.8272   0.0685   0.9951   0
1259.795   0.8700   0.0697   0.9912   0
1259.825   0.9123   0.0706   0.9844   0
1259.855   0.8344   0.0677   0.9730   0
1259.885   0.9149   0.0705   0.9548   1
1259.915   0.8368   0.0677   0.9263   1
1259.945   0.9827   0.0729   0.8844   1
1259.975   0.8482   0.0680   0.8258   1
1260.005   0.7821   0.0655   0.7488   1
1260.034   0.6481   0.0601   0.6533   1
1260.064   0.6323   0.0593   0.5440   1
1260.094   0.5232   0.0543   0.4289   1
1260.124   0.2855   0.0415   0.3182   1
1260.154   0.1671   0.0331   0.2207   1
1260.184   0.1179   0.0286   0.1438   1
1260.214   0.0767   0.0240   0.0881   1
1260.243   0.0531   0.0209   0.0512   1
1260.273   0.0364   0.0185   0.0287   1
1260.303   0.0336   0.0182   0.0160   1
1260.333   0.0220   0.0156   0.0093   1
1260.363   0.0091   0.0118   0.0058   1
1260.393   0.0125   0.0127   0.0040   1
1260.423   0.0166   0.0136   0.0034   1
1260.453   0.0163   0.0135   0.0034   1
1260.482   0.0142   0.0130   0.0042   1
1260.512   0.0100   0.0118   0.0061   1
1260.542   0.0084   0.0116   0.0099   1
1260.572   0.0132   0.0129   0.0170   1
1260.602   0.0278   0.0153   0.0298   1
1260.632   0.0417   0.0190   0.0506   1
1260.662   0.0852   0.0250   0.0798   1
1260.692   0.1450   0.0306   0.1143   1
1260.721   0.2181   0.0367   0.1448   1
1260.751   0.1349   0.0299   0.1597   1
1260.781   0.0930   0.0259   0.1535   1
1260.811   0.1021   0.0269   0.1303   1
1260.841   0.1478   0.0311   0.1003   1
1260.871   0.1414   0.0306   0.0747   1
1260.901   0.0980   0.0262   0.0590   1
1260.931   0.0658   0.0227   0.0551   1
1260.960   0.0669   0.0228   0.0651   1
1260.990   0.0872   0.0250   0.0935   1
1261.020   0.1063   0.0272   0.1497   1
1261.050   0.2159   0.0363   0.2403   1
1261.080   0.3570   0.0451   0.3658   1
1261.110   0.5402   0.0545   0.5143   1
1261.140   0.7351   0.0630   0.6631   1
1261.170   0.8436   0.0671   0.7886   1
1261.199   0.9061   0.0694   0.8742   1
1261.229   0.9206   0.0699   0.9053   1
1261.259   0.8605   0.0678   0.8665   1
1261.289   0.7489   0.0635   0.7791   1
1261.319   0.7867   0.0650   0.7324   1
1261.349   0.7433   0.0632   0.7845   1
1261.379   0.8950   0.0689   0.8880   1
1261.408   0.9976   0.0725   0.9632   1
1261.438   0.9718   0.0716   0.9919   1
1261.468   0.9926   0.0723   0.9986   1
1261.498   0.9666   0.0714   0.9996   1
1261.528   0.9519   0.0708   0.9997   1
1261.558   0.9972   0.0724   0.9998   1
1261.588   0.9989   0.0724   0.9998   1
1261.618   0.9875   0.0720   0.9998   1
1261.647   1.0666   0.0746   0.9998   1
1261.677   1.0363   0.0736   0.9998   1
1261.707   0.9959   0.0722   0.9998   1
1261.737   0.9891   0.0719   0.9999   1
1261.767   1.0133   0.0727   0.9999   1
1261.797   1.0174   0.0728   0.9999   1
1261.827   0.9720   0.0714   0.9999   1
1261.857   1.0247   0.0731   0.9999   1
1261.886   1.0444   0.0737   0.9999   1
1261.916   1.0540   0.0741   0.9999   1
1261.946   0.9947   0.0720   0.9999   1
1261.976   1.0267   0.0731   0.9999   1
1262.006   0.8969   0.0686   0.9999   1
1262.036   0.9666   0.0710   0.9999   1
1262.066   1.0235   0.0729   0.9999   1
1262.096   1.0098   0.0725   0.9999   1
1262.125   1.0066   0.0724   0.9999   1
1262.155   1.0054   0.0723   0.9999   1
1262.185   0.9458   0.0702   0.9999   1
1262.215   1.0029   0.0722   0.9999   1
1262.245   1.0945   0.0752   0.9999   1
1262.275   1.0253   0.0729   0.9999   1
1262.305   1.0338   0.0731   0.9999   1
1262.335   0.9987   0.0719   0.9999   1
1262.364   0.9368   0.0698   0.9999   1
1262.394   0.9954   0.0718   0.9999   1
1262.424   0.9656   0.0708   0.9999   1
1262.454   0.9813   0.0713   1.0000   1
1262.484   1.0388   0.0732   1.0000   1
1262.514   1.0312   0.0729   1.0000   1
1262.544   1.0684   0.0741   1.0000   1
1262.574   1.0588   0.0737   1.0000   1
1262.603   1.0674   0.0741   1.0000   1
1262.633   1.0037   0.0719   1.0000   1
1262.663   1.0482   0.0734   1.0000   1
1262.693   1.0041   0.0719   1.0000   1
1262.723   0.9841   0.0712   1.0000   1
1262.753   0.9330   0.0694   1.0000   1
1262.783   0.9953   0.0716   1.0000   1
1262.812   0.9767   0.0709   1.0000   1
1262.842   0.9720   0.0708   1.0000   1
1262.872   0.9640   0.0704   1.0000   1
1262.902   1.0038   0.0718   1.0000   1
1262.932   1.0590   0.0735   1.0000   1
1262.962   1.0157   0.0721   1.0000   1
1262.992   0.9652   0.0704   1.0000   1
1263.022   0.9768   0.0707   1.0000   1
1263.051   0.9976   0.0714   1.0000   1
1263.081   0.9823   0.0709   1.0000   1
1263.111   0.9929   0.0713   1.0000   1
1263.141   0.9920   0.0712   1.0000   1
1263.171   1.0300   0.0725   1.0000   1
1263.201   1.0093   0.0718   1.0000   1
1263.231   1.0244   0.0723   1.0000   1
1263.261   0.9963   0.0713   1.0000   1
1263.290   0.9624   0.0701   1.0000   1
1263.320   1.0020   0.0714   1.0000   1
1263.350   1.0190   0.0720   1.0000   1
1263.380   0.9942   0.0710   1.0000   1
1263.410   1.0495   0.0729   1.0000   1
1263.440   0.9930   0.0711   1.0000   1
1263.470   1.0128   0.0717   1.0000   1
1263.500   1.0056   0.0714   1.0000   1
1263.529   1.1094   0.0748   1.0000   1
1263.559   1.0554   0.0731   1.0000   1
1263.589   1.1171   0.0750   1.0000   1
1263.619   0.9706   0.0702   1.0000   1
1263.649   0.9232   0.0686   1.0000   1
1263.679   0.9619   0.0699   1.0000   1
1263.709   0.8879   0.0672   1.0000   1
1263.739   0.9690   0.0701   1.0000   1
1263.768   1.0636   0.0731   1.0000   1
1263.798   0.9951   0.0709   1.0000   1
1263.828   1.0530   0.0727   1.0000   1
1263.858   1.0035   0.0712   1.0000   1
1263.888   1.0085   0.0713   1.0000   1
1263.918   1.0126   0.0714   1.0000   1
1263.948   0.9878   0.0705   1.0000   1
1263.977   0.9849   0.0704   1.0000   1
1264.007   0.9783   0.0702   1.0000   1
1264.037   1.0222   0.0717   1.0000   1
1264.067   1.0118   0.0713   1.0000   1
1264.097   0.9736   0.0700   1.0000   1
1264.127   0.9408   0.0688   1.0000   1
1264.157   0.9795   0.0701   1.0000   1
1264.187   1.0137   0.0713   1.0000   1
1264.216   0.9442   0.0690   1.0000   1
1264.246   0.9612   0.0701   1.0000   1
1264.276   1.0473   0.0734   1.0000   1
1264.306   1.0241   0.0729   1.0000   1
1264.336   1.0072   0.0724   1.0000   1
1264.366   1.0090   0.0723   1.0000   1
1264.396   1.0239   0.0727   1.0000   1
1264.426   1.0011   0.0720   1.0000   1
1264.455   1.0603   0.0741   1.0000   1
1264.485   0.9628   0.0704   1.0000   1
1264.515   0.9749   0.0713   1.0000   1
1264.545   0.9689   0.0711   1.0000   1
1264.575   0.9611   0.0705   1.0000   1
1264.605   0.9704   0.0707   1.0000   1
