# Best-fit normalized data and profile from VoigtFit
# column 1 : Wavelength
# column 2 : Normalized flux
# column 3 : Normalized error
# column 4 : Best-fit profile
# column 5 : Pixel mask, 1=included, 0=excluded
1330.105   1.0334   0.7121   1.0000   1
1330.135   0.9632   0.6914   1.0000   1
1330.165   0.8227   0.6508   1.0000   1
1330.195   1.5950   0.7952   1.0000   1
1330.225   1.1739   0.7398   1.0000   1
1330.255   0.4013   0.5435   1.0000   1
1330.285   1.5248   0.8019   1.0000   1
1330.314   1.0332   0.7150   1.0000   1
1330.344   1.1028   0.7231   1.0000   1
1330.374   1.3124   0.7419   1.0000   1
1330.404   1.0452   0.4077   1.0000   1
1330.434   1.2694   0.4372   1.0000   1
1330.464   1.1801   0.4236   1.0000   1
1330.494   1.2057   0.4286   1.0000   1
1330.524   1.0421   0.4063   1.0000   1
1330.554   1.2855   0.4399   1.0000   1
1330.584   1.4488   0.4599   1.0000   1
1330.613   1.0745   0.4106   1.0000   1
1330.643   1.0687   0.4097   1.0000   1
1330.673   1.1842   0.4262   1.0000   1
1330.703   1.3189   0.4450   1.0000   1
1330.733   1.3582   0.4492   1.0000   1
1330.763   1.0771   0.4097   1.0000   1
1330.793   1.0932   0.4122   1.0000   1
1330.823   1.0673   0.4070   1.0000   1
1330.853   1.0933   0.4142   1.0000   1
1330.882   1.0749   0.4106   1.0000   1
1330.912   0.9005   0.3831   1.0000   1
1330.942   0.7593   0.3635   1.0000   1
1330.972   0.7023   0.3544   1.0000   1
1331.002   0.8564   0.3746   1.0000   1
1331.032   0.9209   0.3888   1.0000   1
1331.062   1.1380   0.4201   1.0000   1
1331.092   0.9291   0.3921   1.0000   1
1331.122   1.0253   0.4046   1.0000   1
1331.152   1.1229   0.4184   1.0000   1
1331.181   0.9692   0.3971   1.0000   1
1331.211   0.9062   0.3868   1.0000   1
1331.241   0.9478   0.3665   1.0000   1
1331.271   1.1459   0.4227   1.0000   1
1331.301   1.1465   0.4232   1.0000   1
1331.331   1.0372   0.4070   1.0000   1
1331.361   0.9901   0.4006   1.0000   1
1331.391   1.1832   0.4271   1.0000   1
1331.421   1.0147   0.3980   1.0000   1
1331.451   0.9035   0.3838   1.0000   1
1331.480   0.9640   0.3960   1.0000   1
1331.510   1.0794   0.4114   1.0000   1
1331.540   1.0161   0.4032   1.0000   1
1331.570   0.7117   0.3383   1.0000   1
1331.600   0.9610   0.3854   1.0000   1
1331.630   0.9827   0.3972   1.0000   1
1331.660   0.9392   0.3943   1.0000   1
1331.690   0.8316   0.3752   1.0000   1
1331.720   1.2826   0.4412   1.0000   1
1331.749   1.1545   0.4227   1.0000   1
1331.779   0.9167   0.3825   1.0000   1
1331.809   1.0587   0.4044   1.0000   1
1331.839   0.8052   0.3725   1.0000   1
1331.869   0.8348   0.3578   1.0000   1
1331.899   0.9977   0.4036   1.0000   1
1331.929   1.0921   0.4166   1.0000   1
1331.959   1.1484   0.4228   1.0000   1
1331.989   1.1787   0.4282   1.0000   1
1332.019   1.0366   0.4080   1.0000   1
1332.048   0.8695   0.3620   1.0000   1
1332.078   1.1794   0.4281   1.0000   1
1332.108   1.1418   0.4238   1.0000   1
1332.138   0.9366   0.3932   1.0000   1
1332.168   1.1349   0.4184   1.0000   1
1332.198   0.9962   0.4019   1.0000   1
1332.228   1.0940   0.4183   1.0000   1
1332.258   0.8064   0.3522   1.0000   1
1332.288   0.9229   0.3935   1.0000   1
1332.317   0.8601   0.3825   1.0000   1
1332.347   1.0022   0.4044   1.0000   1
1332.377   0.9832   0.4015   1.0000   1
1332.407   0.9137   0.3912   1.0000   1
1332.437   0.9924   0.4032   1.0000   1
1332.467   1.1477   0.4254   1.0000   1
1332.497   1.0570   0.4137   1.0000   1
1332.527   1.0267   0.3944   1.0000   1
1332.557   0.9337   0.3951   1.0000   1
1332.587   0.9409   0.3926   1.0000   1
1332.616   1.2165   0.4347   1.0000   1
1332.646   0.9721   0.3934   1.0000   1
1332.676   0.9459   0.3969   1.0000   1
1332.706   0.7139   0.3610   1.0000   1
1332.736   0.7786   0.3682   1.0000   1
1332.766   0.9528   0.3982   1.0000   1
1332.796   0.9042   0.3870   1.0000   1
1332.826   0.6778   0.3512   1.0000   1
1332.856   1.2042   0.4282   0.9999   1
1332.886   0.9117   0.3908   0.9998   1
1332.915   0.9730   0.4010   0.9994   1
1332.945   1.0640   0.4145   0.9982   1
1332.975   1.0909   0.4104   0.9949   1
1333.005   0.8597   0.3822   0.9864   1
1333.035   1.1057   0.4128   0.9676   1
1333.065   1.0809   0.4131   0.9303   1
1333.095   1.2228   0.4353   0.8649   1
1333.125   0.8528   0.3799   0.7639   1
1333.155   0.6531   0.3469   0.6323   1
1333.184   0.4246   0.2963   0.4860   1
1333.214   0.3252   0.2732   0.3475   1
1333.244   0.1874   0.2311   0.2377   1
1333.274   0.1002   0.2106   0.1637   1
1333.304   0.0699   0.1911   0.1240   1
1333.334   0.2419   0.2525   0.1140   1
1333.364   0.2586   0.2623   0.1327   1
1333.394   0.1533   0.2174   0.1822   1
1333.424   0.2776   0.2653   0.2670   1
1333.453   0.5875   0.3381   0.3869   1
1333.483   0.4891   0.3136   0.5304   1
1333.513   0.7254   0.3590   0.6746   1
1333.543   0.5608   0.3169   0.7981   1
1333.573   0.8883   0.3892   0.8883   1
1333.603   0.8708   0.3846   0.9440   1
1333.633   0.8111   0.3757   0.9748   1
1333.663   1.1019   0.4207   0.9898   1
1333.693   0.7390   0.3646   0.9962   1
1333.723   0.7929   0.3721   0.9987   1
1333.752   0.8396   0.3773   0.9993   1
1333.782   0.9183   0.3928   0.9974   1
1333.812   1.1246   0.4237   0.9818   1
1333.842   0.9826   0.4027   0.9144   1
1333.872   0.7373   0.3659   0.7649   1
1333.902   0.5606   0.3341   0.6020   1
1333.932   0.6356   0.3467   0.5784   1
1333.962   0.7062   0.3586   0.7238   1
1333.992   0.8855   0.3886   0.8827   1
1334.022   0.8585   0.3849   0.9601   1
1334.051   1.0453   0.4119   0.9732   1
1334.081   0.9031   0.3871   0.9599   1
1334.111   0.8858   0.3890   0.9344   1
1334.141   0.4915   0.3208   0.8966   1
1334.171   0.5815   0.3341   0.8441   1
1334.201   0.7974   0.3736   0.7747   1
1334.231   0.7643   0.3692   0.6904   1
1334.261   0.6449   0.3491   0.5946   1
1334.291   0.8642   0.3807   0.4936   1
1334.320   0.7006   0.3559   0.3952   1
1334.350   0.2334   0.2511   0.3067   1
1334.380   0.1846   0.2337   0.2325   1
1334.410   0.1828   0.2398   0.1746   1
1334.440   0.1400   0.2210   0.1333   1
1334.470   0.0365   0.1905   0.1054   1
1334.500   0.0656   0.1947   0.0886   1
1334.530   0.0866   0.1978   0.0809   1
1334.560   -0.0198   0.1731   0.0816   1
1334.590   0.1210   0.2272   0.0905   1
1334.619   0.1273   0.2165   0.1088   1
1334.649   0.1495   0.2240   0.1384   1
1334.679   0.1295   0.2200   0.1826   1
1334.709   0.4806   0.3209   0.2427   1
1334.739   0.4004   0.3042   0.3191   1
1334.769   0.4670   0.3014   0.4095   1
1334.799   0.4198   0.2763   0.5089   1
1334.829   0.5273   0.3295   0.6096   1
1334.859   0.5886   0.3356   0.7040   1
1334.888   0.7861   0.3715   0.7864   1
1334.918   0.9268   0.3979   0.8528   1
1334.948   1.1003   0.4226   0.9031   1
1334.978   0.8349   0.3821   0.9391   1
1335.008   1.3105   0.4500   0.9634   1
1335.038   1.0779   0.4161   0.9788   1
1335.068   1.0424   0.4149   0.9881   1
1335.098   1.2543   0.4430   0.9936   1
1335.128   0.9344   0.3990   0.9967   1
1335.158   1.4084   0.4636   0.9983   1
1335.187   0.9211   0.3923   0.9992   1
1335.217   1.1339   0.4264   0.9996   1
1335.247   0.9624   0.4020   0.9998   1
1335.277   0.6325   0.3497   0.9999   1
1335.307   1.1631   0.4306   1.0000   1
1335.337   0.9262   0.3979   1.0000   1
1335.367   1.2187   0.4393   1.0000   1
1335.397   1.1105   0.4226   1.0000   1
1335.427   0.8714   0.3892   1.0000   1
1335.457   0.9152   0.3972   1.0000   0
1335.486   1.0250   0.4127   1.0000   0
1335.516   0.9816   0.4062   1.0000   0
1335.546   1.1466   0.4303   1.0000   0
1335.576   0.6230   0.3460   1.0000   0
1335.606   0.9233   0.3977   1.0000   0
1335.636   0.7167   0.3629   1.0000   0
1335.666   0.8036   0.3782   1.0000   0
1335.696   0.3247   0.2844   1.0000   0
1335.726   0.7421   0.3671   1.0000   0
1335.755   0.4649   0.3180   1.0000   0
1335.785   0.6246   0.3445   1.0000   0
1335.815   0.8278   0.3817   1.0000   0
1335.845   0.9557   0.3801   1.0000   0
1335.875   1.1141   0.4237   1.0000   0
1335.905   0.9864   0.4076   1.0000   0
1335.935   0.9641   0.4035   1.0000   0
1335.965   0.9822   0.4000   1.0000   1
1335.995   0.7233   0.3640   1.0000   1
1336.024   0.7794   0.3783   1.0000   1
1336.054   1.0909   0.4297   1.0000   1
1336.084   1.2073   0.4466   1.0000   1
1336.114   1.1812   0.4462   1.0000   1
1336.144   1.0323   0.4210   1.0000   1
1336.174   0.9876   0.4166   1.0000   1
1336.204   1.0872   0.4267   1.0000   1
1336.234   0.6960   0.3703   1.0000   1
1336.264   0.9454   0.4038   1.0000   1
1336.294   1.0926   0.4335   1.0000   1
1336.323   0.7892   0.3859   1.0000   1
1336.353   1.0328   0.4333   1.0000   1
1336.383   1.1941   0.4505   1.0000   1
1336.413   1.1133   0.4353   1.0000   1
1336.443   1.1884   0.4403   1.0000   1
1336.473   1.3069   0.4514   1.0000   1
1336.503   1.2690   0.4463   1.0000   1
1336.533   0.9576   0.4041   1.0000   1
1336.563   0.6775   0.3495   1.0000   1
1336.592   0.8691   0.3901   1.0000   1
1336.622   0.9253   0.4003   1.0000   1
1336.652   0.9224   0.3980   1.0000   1
1336.682   1.2367   0.4425   1.0000   1
1336.712   0.6294   0.3511   1.0000   1
1336.742   0.6506   0.3537   1.0000   1
1336.772   0.8851   0.3909   1.0000   1
1336.802   0.9950   0.4074   1.0000   1
1336.832   1.4499   0.4719   1.0000   1
1336.862   0.9687   0.4066   1.0000   1
1336.891   0.7146   0.3650   1.0000   1
1336.921   0.9897   0.4100   1.0000   1
1336.951   1.3582   0.4585   1.0000   1
1336.981   1.1829   0.4377   1.0000   1
1337.011   0.7794   0.3714   1.0000   1
1337.041   1.2096   0.4416   1.0000   1
1337.071   1.1125   0.4254   1.0000   1
1337.101   1.0025   0.4122   1.0000   1
1337.131   1.0521   0.4175   1.0000   1
1337.161   0.9717   0.4072   1.0000   1
1337.190   1.0585   0.4169   1.0000   1
1337.220   0.8634   0.3903   1.0000   1
1337.250   1.0913   0.4250   1.0000   1
1337.280   1.3285   0.4564   1.0000   1
1337.310   1.0709   0.4237   1.0000   1
1337.340   1.1710   0.4370   1.0000   1
1337.370   1.1296   0.4363   1.0000   1
1337.400   0.8636   0.3956   1.0000   1
1337.430   0.7034   0.3711   1.0000   1
1337.459   1.0084   0.4328   1.0000   1
1337.489   1.0522   0.4135   1.0000   1
1337.519   1.3640   0.4786   1.0000   1
1337.549   0.9057   0.4558   1.0000   1
1337.579   1.2832   0.4677   1.0000   1
1337.609   0.7337   0.3861   1.0000   1
1337.639   1.0602   0.4442   1.0000   1
1337.669   0.9067   0.4131   1.0000   1
1337.699   1.1205   0.4550   1.0000   1
1337.729   0.9951   0.4392   1.0000   1
1337.758   1.2802   0.4652   1.0000   1
1337.788   1.0853   0.4334   1.0000   1
1337.818   0.7687   0.3763   1.0000   1
1337.848   1.0225   0.4168   1.0000   1
1337.878   1.2143   0.4440   1.0000   1
1337.908   1.1793   0.4353   1.0000   1
1337.938   1.0076   0.3976   1.0000   1
1337.968   0.9631   0.4075   1.0000   1
1337.998   0.9353   0.3996   1.0000   1
1338.027   0.9655   0.4058   1.0000   1
1338.057   0.9034   0.3983   1.0000   1
1338.087   0.9033   0.3983   1.0000   1
1338.117   1.2751   0.4499   1.0000   1
1338.147   0.8420   0.3861   1.0000   1
1338.177   0.8739   0.3938   1.0000   1
1338.207   1.1504   0.4338   1.0000   1
1338.237   1.2803   0.4516   1.0000   1
1338.267   1.1204   0.4313   1.0000   1
1338.297   1.0934   0.4262   1.0000   1
1338.326   1.2453   0.4485   1.0000   1
1338.356   0.9710   0.4092   1.0000   1
1338.386   1.0657   0.4219   1.0000   1
1338.416   1.0653   0.4236   1.0000   1
1338.446   0.8150   0.3853   1.0000   1
1338.476   1.2249   0.4410   1.0000   1
1338.506   1.1288   0.4313   1.0000   1
1338.536   1.2864   0.4520   1.0000   1
1338.566   0.8781   0.3959   1.0000   1
1338.595   1.0964   0.4218   1.0000   1
1338.625   1.2241   0.4458   1.0000   1
1338.655   0.8486   0.3897   1.0000   1
1338.685   1.0956   0.4258   1.0000   1
1338.715   1.1582   0.4356   1.0000   1
1338.745   0.7552   0.3742   1.0000   1
1338.775   1.0660   0.4198   1.0000   1
1338.805   0.8475   0.3914   1.0000   1
1338.835   1.0976   0.4280   1.0000   1
1338.865   1.2870   0.4523   1.0000   1
1338.894   0.9728   0.4110   1.0000   1
1338.924   0.8155   0.3847   1.0000   1
1338.954   1.0963   0.4256   1.0000   1
