# Best-fit normalized data and profile from VoigtFit
# column 1 : Wavelength
# column 2 : Normalized flux
# column 3 : Normalized error
# column 4 : Best-fit profile
# column 5 : Pixel mask, 1=included, 0=excluded
1202.501   0.9438   0.4061   1.0000   1
1202.531   0.9607   0.4075   1.0000   1
1202.561   1.0456   0.4137   1.0000   1
1202.591   1.0716   0.4250   1.0000   1
1202.621   1.3729   0.4634   1.0000   1
1202.651   0.6831   0.3663   1.0000   1
1202.680   1.0323   0.4212   1.0000   1
1202.710   1.0432   0.4223   1.0000   1
1202.740   1.0657   0.4016   1.0000   1
1202.770   1.1326   0.4341   1.0000   1
1202.800   1.2379   0.4490   1.0000   1
1202.830   1.0774   0.4269   1.0000   1
1202.860   1.1785   0.4396   1.0000   1
1202.890   0.8632   0.3947   1.0000   1
1202.920   0.9268   0.4061   1.0000   1
1202.950   0.7616   0.3744   1.0000   1
1202.979   1.0854   0.4302   1.0000   1
1203.009   0.8752   0.3908   1.0000   1
1203.039   0.7934   0.3862   1.0000   1
1203.069   1.2996   0.4608   1.0000   1
1203.099   1.0702   0.4259   1.0000   1
1203.129   1.0613   0.4246   1.0000   1
1203.159   0.7995   0.3850   1.0000   1
1203.189   0.6338   0.3602   1.0000   1
1203.219   0.9264   0.4049   1.0000   1
1203.249   1.0850   0.4316   1.0000   1
1203.279   1.1035   0.4346   1.0000   1
1203.308   1.1956   0.4461   1.0000   1
1203.338   1.1787   0.4420   1.0000   1
1203.368   1.0604   0.4243   1.0000   1
1203.398   1.4889   0.4872   1.0000   1
1203.428   0.8540   0.3922   1.0000   1
1203.458   0.9999   0.4179   1.0000   1
1203.488   0.8940   0.4044   1.0000   1
1203.518   0.8867   0.4049   1.0000   1
1203.548   0.7438   0.3807   1.0000   1
1203.578   0.9856   0.4215   1.0000   1
1203.607   0.9306   0.3991   1.0000   1
1203.637   1.2344   0.4570   1.0000   1
1203.667   0.8669   0.4005   1.0000   1
1203.697   0.8529   0.3998   1.0000   1
1203.727   0.9935   0.4225   1.0000   1
1203.757   1.2709   0.4619   1.0000   1
1203.787   0.9081   0.4106   1.0000   1
1203.817   0.9740   0.4212   1.0000   1
1203.847   1.3503   0.4742   1.0000   1
1203.877   0.7261   0.3562   1.0000   1
1203.906   0.8355   0.4003   1.0000   1
1203.936   1.2167   0.4553   1.0000   1
1203.966   1.1075   0.4370   1.0000   1
1203.996   0.9841   0.4204   1.0000   1
1204.026   1.0140   0.4283   1.0000   1
1204.056   0.9516   0.4181   1.0000   1
1204.086   0.8023   0.3742   1.0000   1
1204.116   1.0683   0.4394   1.0000   1
1204.146   1.0275   0.4320   1.0000   1
1204.176   0.9646   0.4230   1.0000   1
1204.206   0.9041   0.4142   1.0000   1
1204.235   0.8727   0.4092   1.0000   1
1204.265   0.9597   0.4195   1.0000   1
1204.295   1.0378   0.4289   1.0000   1
1204.325   0.9798   0.4230   1.0000   1
1204.355   1.0596   0.4372   1.0000   1
1204.385   1.2483   0.4639   1.0000   1
1204.415   1.2553   0.4662   1.0000   1
1204.445   0.9992   0.4294   1.0000   1
1204.475   1.4352   0.4889   1.0000   1
1204.505   1.3089   0.4730   1.0000   1
1204.534   0.9685   0.4250   1.0000   1
1204.564   1.1963   0.4592   1.0000   1
1204.594   0.8353   0.3974   1.0000   1
1204.624   1.1396   0.4518   0.9999   1
1204.654   0.9571   0.4203   0.9999   1
1204.684   1.0677   0.4374   0.9999   1
1204.714   1.0858   0.4443   0.9999   1
1204.744   1.3326   0.4756   0.9999   1
1204.774   0.8515   0.4100   0.9999   1
1204.804   0.9534   0.4235   0.9999   1
1204.833   0.9965   0.4341   0.9999   1
1204.863   1.1833   0.4599   0.9999   1
1204.893   1.1679   0.4521   0.9999   1
1204.923   1.0922   0.4485   0.9999   1
1204.953   0.9568   0.4272   0.9998   1
1204.983   1.0336   0.4406   0.9996   1
1205.013   1.0475   0.4406   0.9991   1
1205.043   0.9247   0.4187   0.9975   1
1205.073   1.3107   0.4784   0.9934   1
1205.103   0.7307   0.3707   0.9833   1
1205.132   0.8670   0.4052   0.9608   1
1205.162   0.8082   0.4075   0.9158   1
1205.192   0.8785   0.4192   0.8385   1
1205.222   0.7849   0.4031   0.7236   1
1205.252   0.6731   0.3816   0.5778   1
1205.282   0.4511   0.3406   0.4218   1
1205.312   0.1567   0.2558   0.2831   1
1205.342   0.1842   0.2616   0.1793   1
1205.372   0.2030   0.2449   0.1137   1
1205.402   0.1839   0.2626   0.0799   1
1205.431   0.0254   0.2076   0.0702   1
1205.461   0.1051   0.2333   0.0821   1
1205.491   0.0177   0.2053   0.1185   1
1205.521   0.2003   0.2609   0.1872   1
1205.551   0.4391   0.3296   0.2910   1
1205.581   0.3554   0.3072   0.4135   1
1205.611   0.5537   0.3457   0.5169   1
1205.641   0.5547   0.3451   0.6007   1
1205.671   0.7477   0.3782   0.7112   1
1205.701   0.8506   0.4156   0.8435   1
1205.731   0.8992   0.4052   0.9365   1
1205.760   0.9464   0.4357   0.9677   1
1205.790   1.1517   0.4646   0.9537   1
1205.820   0.9131   0.4258   0.8964   1
1205.850   0.4026   0.3318   0.7884   1
1205.880   0.7133   0.3965   0.6388   1
1205.910   0.8686   0.4240   0.4830   1
1205.940   0.5801   0.3564   0.3669   1
1205.970   0.2403   0.2674   0.3187   1
1206.000   0.1645   0.2623   0.3471   1
1206.030   0.4634   0.3315   0.4460   1
1206.059   0.7931   0.4133   0.5908   1
1206.089   0.8204   0.4188   0.7358   1
1206.119   0.9930   0.4453   0.8374   1
1206.149   0.6106   0.3822   0.8773   1
1206.179   0.9666   0.4440   0.8609   1
1206.209   0.6118   0.3812   0.8013   1
1206.239   0.9336   0.4356   0.7090   1
1206.269   0.7919   0.4129   0.5950   1
1206.299   0.4997   0.3206   0.4703   1
1206.329   0.2633   0.2835   0.3486   1
1206.359   0.1187   0.2482   0.2424   1
1206.388   0.1775   0.2775   0.1600   1
1206.418   0.1715   0.2547   0.1021   1
1206.448   0.2163   0.2775   0.0650   1
1206.478   0.0507   0.2267   0.0431   1
1206.508   0.0130   0.2122   0.0314   1
1206.538   0.0119   0.2117   0.0266   1
1206.568   0.0117   0.2131   0.0272   1
1206.598   0.0114   0.2123   0.0331   1
1206.628   0.0466   0.2315   0.0463   1
1206.658   0.0520   0.2310   0.0705   1
1206.687   0.2562   0.2957   0.1110   1
1206.717   0.3087   0.3010   0.1740   1
1206.747   0.3330   0.3271   0.2614   1
1206.777   0.1276   0.2549   0.3711   1
1206.807   0.5353   0.3560   0.4943   1
1206.837   0.5453   0.3740   0.6183   1
1206.867   0.8482   0.4311   0.7298   1
1206.897   1.2567   0.4965   0.8205   1
1206.927   0.8851   0.4365   0.8879   1
1206.957   0.9524   0.4515   0.9340   1
1206.986   0.9501   0.4481   0.9633   1
1207.016   0.9306   0.4450   0.9804   1
1207.046   1.0714   0.4714   0.9900   1
1207.076   1.1395   0.4790   0.9951   1
1207.106   1.0052   0.4595   0.9976   1
1207.136   0.9557   0.4493   0.9989   1
1207.166   0.9457   0.4407   0.9995   1
1207.196   0.8486   0.4354   0.9997   1
1207.226   0.8743   0.4385   0.9998   1
1207.256   1.3151   0.5092   0.9999   1
1207.285   0.7510   0.4198   0.9999   1
1207.315   0.6210   0.3956   0.9999   1
1207.345   1.0138   0.4644   0.9999   1
1207.375   0.6094   0.3894   0.9999   1
1207.405   1.0607   0.4714   0.9999   1
1207.435   1.1810   0.4924   0.9999   1
1207.465   1.3709   0.5184   0.9999   1
1207.495   0.6550   0.3966   0.9999   1
1207.525   0.9156   0.4515   0.9999   1
1207.555   0.8423   0.4414   0.9999   1
1207.584   1.3919   0.5220   1.0000   1
1207.614   0.9421   0.4529   1.0000   1
1207.644   0.6209   0.3913   1.0000   1
1207.674   0.9145   0.4487   1.0000   1
1207.704   1.1480   0.4778   1.0000   1
1207.734   1.0915   0.4831   1.0000   1
1207.764   1.3252   0.5157   1.0000   1
1207.794   1.1414   0.4906   1.0000   1
1207.824   1.2446   0.5041   1.0000   1
1207.854   1.0382   0.4766   1.0000   1
1207.884   1.1810   0.4981   1.0000   1
1207.913   0.7492   0.4267   1.0000   1
1207.943   0.8761   0.4507   1.0000   1
1207.973   1.4597   0.5405   1.0000   1
1208.003   1.1868   0.4971   1.0000   1
1208.033   1.3603   0.5245   1.0000   1
1208.063   1.0304   0.4789   1.0000   1
1208.093   1.3849   0.5311   1.0000   1
1208.123   1.0491   0.4831   1.0000   1
1208.153   1.0122   0.4776   1.0000   1
1208.183   0.6949   0.4218   1.0000   1
1208.212   1.4372   0.5419   1.0000   1
1208.242   1.0373   0.4843   1.0000   1
1208.272   0.9250   0.4608   1.0000   1
1208.302   0.9818   0.4775   1.0000   1
1208.332   1.2851   0.5235   1.0000   1
1208.362   1.1487   0.4902   1.0000   1
1208.392   0.7110   0.4297   1.0000   1
1208.422   0.6786   0.4223   1.0000   1
1208.452   1.0163   0.4816   1.0000   1
1208.482   1.2080   0.5133   1.0000   1
1208.511   1.1407   0.5033   1.0000   1
1208.541   1.0168   0.4841   1.0000   1
1208.571   0.8308   0.4179   1.0000   1
1208.601   1.2084   0.5165   1.0000   1
1208.631   1.0174   0.4837   1.0000   1
1208.661   0.8598   0.4581   1.0000   1
1208.691   0.9802   0.4824   1.0000   1
1208.721   1.2710   0.5231   1.0000   1
1208.751   0.7674   0.4474   1.0000   1
1208.781   0.9746   0.4807   1.0000   1
1208.810   1.2083   0.5151   1.0000   1
1208.840   1.1544   0.5061   1.0000   1
1208.870   1.0504   0.4962   1.0000   1
1208.900   1.0859   0.5043   1.0000   1
1208.930   0.9013   0.4696   1.0000   1
1208.960   0.9748   0.4813   1.0000   1
1208.990   1.1789   0.5197   1.0000   1
1209.020   0.8522   0.4640   1.0000   1
1209.050   1.0581   0.5016   1.0000   1
1209.080   0.7385   0.4377   1.0000   1
1209.110   1.3425   0.5415   1.0000   1
1209.139   0.7964   0.4319   1.0000   1
1209.169   1.0847   0.5052   1.0000   1
1209.199   1.5962   0.5876   1.0000   1
1209.229   0.6734   0.4371   1.0000   1
1209.259   1.0815   0.5098   1.0000   1
1209.289   0.9436   0.4991   1.0000   1
1209.319   0.8845   0.4941   1.0000   1
1209.349   0.8352   0.4759   1.0000   1
1209.379   0.8445   0.4789   1.0000   1
1209.409   1.3612   0.5639   1.0000   1
1209.438   1.0199   0.5096   1.0000   1
1209.468   0.8897   0.4906   1.0000   1
1209.498   1.0200   0.5103   1.0000   1
1209.528   1.3693   0.5647   1.0000   1
1209.558   0.8531   0.4524   1.0000   1
1209.588   0.8471   0.4852   1.0000   1
1209.618   1.0044   0.5063   1.0000   1
1209.648   1.0703   0.5186   1.0000   1
1209.678   0.9536   0.4918   1.0000   1
1209.708   0.9096   0.4877   1.0000   1
1209.737   1.2716   0.5472   1.0000   1
1209.767   1.3201   0.5461   1.0000   1
1209.797   1.2148   0.5408   1.0000   1
1209.827   0.9523   0.4873   1.0000   1
1209.857   1.1598   0.5007   1.0000   1
1209.887   0.8079   0.4659   1.0000   1
1209.917   0.7723   0.4604   1.0000   1
1209.947   1.4213   0.5660   1.0000   1
1209.977   0.9691   0.5030   1.0000   1
1210.007   1.4021   0.5688   1.0000   1
1210.037   0.9832   0.5070   1.0000   1
1210.066   1.0599   0.5206   1.0000   1
1210.096   0.8746   0.4892   1.0000   1
1210.126   0.8470   0.4853   1.0000   1
1210.156   0.9240   0.4976   1.0000   1
1210.186   1.1582   0.5368   1.0000   1
1210.216   1.1255   0.5346   1.0000   1
1210.246   0.7041   0.4613   1.0000   1
1210.276   1.2922   0.5644   1.0000   1
1210.306   0.7658   0.4754   1.0000   1
1210.336   0.9652   0.5037   1.0000   1
1210.365   1.0676   0.5305   1.0000   1
1210.395   1.2491   0.5676   1.0000   1
1210.425   0.7326   0.4580   1.0000   1
1210.455   0.9711   0.5224   1.0000   1
1210.485   1.0327   0.5372   1.0000   1
1210.515   0.9621   0.5316   1.0000   1
