# Best-fit normalized data and profile from VoigtFit
# column 1 : Wavelength
# column 2 : Normalized flux
# column 3 : Normalized error
# column 4 : Best-fit profile
# column 5 : Pixel mask, 1=included, 0=excluded
1543.057   1.2864   0.4616   1.0000   1
1543.094   0.9992   0.4186   1.0000   1
1543.131   0.9364   0.4125   1.0000   1
1543.168   1.1960   0.4509   1.0000   1
1543.204   0.8532   0.4002   1.0000   1
1543.241   1.2794   0.4621   1.0000   1
1543.278   0.9847   0.4126   1.0000   1
1543.314   1.3125   0.4654   1.0000   1
1543.351   1.2640   0.4601   1.0000   1
1543.388   1.0683   0.4333   1.0000   1
1543.425   1.1182   0.4402   1.0000   1
1543.461   0.9887   0.4210   1.0000   1
1543.498   0.9726   0.4186   1.0000   1
1543.535   0.8265   0.3954   1.0000   1
1543.572   0.9725   0.4174   1.0000   1
1543.608   0.9087   0.4073   1.0000   1
1543.645   1.1176   0.4399   1.0000   1
1543.682   1.3220   0.4642   1.0000   1
1543.718   0.9390   0.4098   1.0000   1
1543.755   1.0581   0.4309   1.0000   1
1543.792   1.0511   0.4305   1.0000   1
1543.828   1.2220   0.4522   1.0000   1
1543.865   1.0356   0.4277   1.0000   1
1543.902   1.3354   0.4682   1.0000   1
1543.939   1.1872   0.4470   1.0000   1
1543.975   1.0782   0.4290   1.0000   1
1544.012   0.9776   0.4193   1.0000   1
1544.049   1.1423   0.4408   1.0000   1
1544.085   0.9239   0.4109   1.0000   1
1544.122   1.2173   0.4548   1.0000   1
1544.159   1.2635   0.4605   1.0000   1
1544.196   0.8376   0.3972   1.0000   1
1544.232   1.1642   0.4478   1.0000   1
1544.269   0.9871   0.4195   1.0000   1
1544.306   1.0814   0.4335   1.0000   1
1544.342   1.2478   0.4557   1.0000   1
1544.379   1.1489   0.4467   1.0000   1
1544.416   1.1949   0.4507   1.0000   1
1544.453   1.0906   0.4372   1.0000   1
1544.489   0.8214   0.3945   1.0000   1
1544.526   1.0322   0.4172   1.0000   1
1544.563   0.7857   0.3830   1.0000   1
1544.599   0.9839   0.4199   1.0000   1
1544.636   0.9587   0.4181   1.0000   1
1544.673   0.9300   0.4149   1.0000   1
1544.710   1.0329   0.4311   1.0000   1
1544.746   0.8693   0.4028   1.0000   1
1544.783   1.0405   0.4245   1.0000   1
1544.820   0.9028   0.4089   1.0000   1
1544.856   0.8492   0.3994   1.0000   1
1544.893   1.1584   0.4424   1.0000   1
1544.930   1.0237   0.4278   1.0000   1
1544.967   1.0252   0.4307   1.0000   1
1545.003   0.8745   0.4050   1.0000   1
1545.040   1.2431   0.4560   1.0000   1
1545.077   1.0908   0.4386   1.0000   1
1545.113   1.1432   0.4468   1.0000   1
1545.150   1.3199   0.4644   1.0000   1
1545.187   0.8041   0.3883   1.0000   1
1545.224   0.9032   0.4092   1.0000   1
1545.260   0.9898   0.4224   1.0000   1
1545.297   1.2422   0.4601   1.0000   1
1545.334   0.8493   0.4011   1.0000   1
1545.370   0.6375   0.3633   1.0000   1
1545.407   1.1377   0.4448   1.0000   1
1545.444   0.8884   0.4069   1.0000   1
1545.481   1.3037   0.4639   1.0000   1
1545.517   1.0529   0.4341   1.0000   1
1545.554   1.0741   0.4341   1.0000   1
1545.591   0.9953   0.4238   1.0000   1
1545.627   0.9211   0.4119   1.0000   1
1545.664   0.4364   0.3257   1.0000   1
1545.701   0.7294   0.3823   1.0000   1
1545.738   0.9860   0.4231   1.0000   1
1545.774   0.5952   0.3578   1.0000   1
1545.811   0.6104   0.3583   1.0000   1
1545.848   0.9775   0.4234   1.0000   1
1545.884   1.0962   0.4421   1.0000   1
1545.921   0.8504   0.3995   1.0000   1
1545.958   1.2538   0.4635   1.0000   1
1545.995   0.9560   0.4223   1.0000   1
1546.031   1.0634   0.4333   1.0000   1
1546.068   0.5914   0.3572   1.0000   1
1546.105   1.0948   0.4337   1.0000   1
1546.141   1.1639   0.4504   1.0000   1
1546.178   1.1808   0.4500   1.0000   1
1546.215   0.5928   0.3516   0.9999   1
1546.252   1.0980   0.4438   0.9998   1
1546.288   0.9514   0.4209   0.9995   1
1546.325   1.3426   0.4737   0.9987   1
1546.362   1.1804   0.4530   0.9971   1
1546.398   1.0595   0.4354   0.9938   1
1546.435   1.2972   0.4698   0.9874   1
1546.472   0.9820   0.4257   0.9760   1
1546.509   1.1887   0.4550   0.9570   1
1546.545   1.0425   0.4363   0.9274   1
1546.582   1.0493   0.4335   0.8855   1
1546.619   0.7052   0.3791   0.8309   1
1546.655   0.8440   0.4007   0.7656   1
1546.692   0.6053   0.3438   0.6950   1
1546.729   0.6610   0.3702   0.6258   1
1546.766   0.6028   0.3591   0.5652   1
1546.802   0.6762   0.3760   0.5189   1
1546.839   0.3900   0.3187   0.4910   1
1546.876   0.6381   0.3496   0.4837   1
1546.912   0.5153   0.3431   0.4968   1
1546.949   0.2968   0.2785   0.5301   1
1546.986   1.0808   0.4408   0.5810   1
1547.023   0.7114   0.3664   0.6446   1
1547.059   0.8931   0.4075   0.7150   1
1547.096   0.7921   0.3850   0.7847   1
1547.133   0.8005   0.3954   0.8475   1
1547.169   0.6197   0.3649   0.8987   1
1547.206   0.9690   0.4241   0.9369   1
1547.243   0.9028   0.4107   0.9633   1
1547.279   1.3073   0.4714   0.9798   1
1547.316   0.8657   0.4067   0.9896   1
1547.353   1.1166   0.4442   0.9950   1
1547.390   1.1535   0.4519   0.9977   1
1547.426   1.3461   0.4796   0.9990   1
1547.463   1.0971   0.4430   0.9988   1
1547.500   0.5992   0.3615   0.9858   1
1547.537   1.0448   0.4348   0.9088   1
1547.573   0.6880   0.3756   0.7489   1
1547.610   0.7035   0.3719   0.7136   1
1547.647   0.8013   0.3954   0.8595   1
1547.683   1.2206   0.4640   0.9679   1
1547.720   0.7974   0.3930   0.9867   1
1547.757   0.9068   0.4111   0.9798   1
1547.793   1.0407   0.4383   0.9648   1
1547.830   0.8731   0.4116   0.9411   1
1547.867   1.1386   0.4532   0.9071   1
1547.904   0.7130   0.3862   0.8611   1
1547.940   1.0013   0.4302   0.8030   1
1547.977   1.2330   0.4647   0.7357   1
1548.014   0.8113   0.3900   0.6633   1
1548.050   0.9104   0.4153   0.5920   1
1548.087   0.4090   0.3248   0.5274   1
1548.124   0.1418   0.2325   0.4745   1
1548.161   0.5774   0.3612   0.4370   1
1548.197   0.4450   0.3004   0.4160   1
1548.234   0.6454   0.3702   0.4128   1
1548.271   0.2730   0.2766   0.4275   1
1548.307   0.6494   0.3739   0.4590   1
1548.344   0.6810   0.3786   0.5067   1
1548.381   0.6847   0.3791   0.5676   1
1548.418   0.6142   0.3638   0.6370   1
1548.454   0.6816   0.3755   0.7098   1
1548.491   0.8513   0.4092   0.7795   1
1548.528   0.7509   0.3929   0.8414   1
1548.564   0.6163   0.3666   0.8919   1
1548.601   0.7514   0.3866   0.9301   1
1548.638   0.7180   0.3838   0.9574   1
1548.675   1.0955   0.4479   0.9752   1
1548.711   0.8859   0.4196   0.9863   1
1548.748   1.1112   0.4504   0.9928   1
1548.785   1.2301   0.4758   0.9964   1
1548.821   0.6511   0.3858   0.9982   1
1548.858   1.1697   0.4738   0.9990   1
1548.895   0.9636   0.4457   0.9992   1
1548.932   1.0119   0.4488   0.9987   1
1548.968   0.9693   0.4447   0.9975   1
1549.005   0.6253   0.3719   0.9949   1
1549.042   1.1602   0.4681   0.9901   1
1549.078   0.9642   0.4414   0.9820   1
1549.115   1.0021   0.4445   0.9687   1
1549.152   1.3376   0.4991   0.9490   1
1549.189   1.0282   0.4517   0.9220   1
1549.225   1.0718   0.4450   0.8874   1
1549.262   0.6079   0.3692   0.8472   1
1549.299   0.7565   0.3944   0.8046   1
1549.335   0.4631   0.3372   0.7639   1
1549.372   0.6418   0.3695   0.7296   1
1549.409   0.6655   0.3753   0.7057   1
1549.446   0.7605   0.3947   0.6957   1
1549.482   0.7887   0.4003   0.6999   1
1549.519   0.8896   0.4177   0.7181   1
1549.556   0.9653   0.4282   0.7485   1
1549.592   0.7544   0.3941   0.7870   1
1549.629   0.5951   0.3644   0.8294   1
1549.666   0.5496   0.3502   0.8711   1
1549.703   0.9295   0.4236   0.9083   1
1549.739   1.0920   0.4470   0.9386   1
1549.776   1.0849   0.4458   0.9613   1
1549.813   0.9756   0.4266   0.9771   1
1549.849   0.9634   0.4297   0.9872   1
1549.886   0.9152   0.4175   0.9933   1
1549.923   1.0227   0.4333   0.9967   1
1549.960   1.0527   0.4393   0.9984   1
1549.996   0.9932   0.4334   0.9993   1
1550.033   0.8746   0.4156   0.9996   1
1550.070   1.3032   0.4791   0.9969   1
1550.106   0.9261   0.4236   0.9714   1
1550.143   1.0327   0.4413   0.8900   1
1550.180   0.8673   0.4133   0.8219   1
1550.217   0.8051   0.4008   0.8806   1
1550.253   1.1829   0.4609   0.9654   1
1550.290   1.1814   0.4626   0.9921   1
1550.327   1.1022   0.4507   0.9918   1
1550.363   1.1820   0.4608   0.9856   1
1550.400   1.2860   0.4781   0.9754   1
1550.437   0.9585   0.4281   0.9600   1
1550.474   0.9438   0.4257   0.9382   1
1550.510   0.9726   0.4280   0.9091   1
1550.547   0.7630   0.3922   0.8730   1
1550.584   0.8770   0.4160   0.8312   1
1550.620   0.8320   0.4084   0.7864   1
1550.657   0.5385   0.3523   0.7422   1
1550.694   0.5802   0.3652   0.7023   1
1550.731   0.5736   0.3632   0.6707   1
1550.767   0.4912   0.3313   0.6500   1
1550.804   0.9549   0.4277   0.6418   1
1550.841   0.7634   0.3968   0.6475   1
1550.877   0.6262   0.3632   0.6660   1
1550.914   0.8764   0.4133   0.6957   1
1550.951   0.8389   0.4053   0.7343   1
1550.988   0.9184   0.4224   0.7781   1
1551.024   0.7683   0.3978   0.8231   1
1551.061   0.8698   0.4163   0.8656   1
1551.098   1.0214   0.4420   0.9029   1
1551.134   0.7740   0.3981   0.9334   1
1551.171   1.0146   0.4361   0.9565   1
1551.208   0.6463   0.3768   0.9730   1
1551.245   0.8004   0.4048   0.9841   1
1551.281   1.1531   0.4539   0.9910   1
1551.318   0.7839   0.3815   0.9952   1
1551.355   1.0656   0.4433   0.9976   1
1551.391   1.2149   0.4703   0.9988   1
1551.428   1.0743   0.4475   0.9994   1
1551.465   0.9762   0.4340   0.9998   1
1551.502   0.9849   0.4328   0.9999   1
1551.538   0.7535   0.3961   1.0000   1
1551.575   0.8636   0.4165   1.0000   1
1551.612   0.6236   0.3536   1.0000   1
1551.648   0.9810   0.4359   1.0000   1
1551.685   1.3401   0.4884   1.0000   1
1551.722   0.9277   0.4280   1.0000   1
1551.758   1.0140   0.4451   1.0000   1
1551.795   0.7644   0.4019   1.0000   1
1551.832   0.7429   0.4069   1.0000   1
1551.869   1.0149   0.4596   1.0000   1
1551.905   0.9774   0.4479   1.0000   1
1551.942   0.9061   0.4367   1.0000   1
1551.979   1.2966   0.4972   1.0000   1
1552.015   1.2885   0.4755   1.0000   1
1552.052   1.3259   0.5029   1.0000   1
1552.089   0.8087   0.4179   1.0000   1
1552.126   0.9679   0.4458   1.0000   1
1552.162   1.1080   0.4728   1.0000   1
1552.199   1.2704   0.4819   1.0000   1
1552.236   1.0259   0.4570   1.0000   1
1552.272   0.7584   0.4132   1.0000   1
1552.309   0.8139   0.4104   1.0000   1
1552.346   0.9856   0.4374   1.0000   1
1552.383   1.2264   0.4688   1.0000   1
1552.419   0.7322   0.3915   1.0000   1
1552.456   0.8889   0.4198   1.0000   1
1552.493   0.7284   0.3908   1.0000   1
1552.529   1.0969   0.4444   1.0000   1
1552.566   0.9145   0.4218   1.0000   1
1552.603   0.9237   0.4299   1.0000   1
1552.640   1.0896   0.4450   1.0000   1
1552.676   1.1058   0.4512   1.0000   1
1552.713   1.3093   0.4845   1.0000   1
1552.750   0.8645   0.4169   1.0000   1
1552.786   1.0474   0.4471   1.0000   1
1552.823   1.0046   0.4395   1.0000   1
1552.860   0.9364   0.4222   1.0000   1
1552.897   1.0120   0.4390   1.0000   1
1552.933   1.0010   0.4380   1.0000   1
1552.970   1.2790   0.4805   1.0000   1
1553.007   1.1433   0.4624   1.0000   1
1553.043   1.1752   0.4635   1.0000   1
1553.080   1.2007   0.4687   1.0000   1
1553.117   1.0825   0.4506   1.0000   1
1553.154   1.0624   0.4494   1.0000   1
1553.190   0.8702   0.4189   1.0000   1
1553.227   0.9629   0.4353   1.0000   1
1553.264   1.3142   0.4874   1.0000   1
1553.300   1.0255   0.4374   1.0000   1
1553.337   1.0988   0.4522   1.0000   1
1553.374   1.1297   0.4603   1.0000   1
1553.411   0.7766   0.4068   1.0000   1
1553.447   0.6568   0.3727   1.0000   1
1553.484   0.7666   0.4007   1.0000   1
1553.521   0.7092   0.3875   1.0000   1
1553.557   0.9354   0.4326   1.0000   1
1553.594   0.9009   0.4263   1.0000   1
1553.631   0.9929   0.4406   1.0000   1
1553.668   0.9874   0.4421   1.0000   1
1553.704   0.7831   0.4078   1.0000   1
1553.741   0.8860   0.4209   1.0000   1
1553.778   0.7284   0.3961   1.0000   1
1553.814   0.8523   0.4141   1.0000   1
1553.851   1.0965   0.4562   1.0000   1
1553.888   1.0276   0.4453   1.0000   1
1553.925   1.1164   0.4588   1.0000   1
1553.961   1.2755   0.4829   1.0000   1
1553.998   1.2728   0.4823   1.0000   1
1554.035   1.1717   0.4662   1.0000   1
1554.071   1.2240   0.4742   1.0000   1
1554.108   0.9443   0.4326   1.0000   1
1554.145   0.9245   0.4316   1.0000   1
1554.182   1.0382   0.4432   1.0000   1
1554.218   0.6400   0.3592   1.0000   1
1554.255   1.1978   0.4691   1.0000   1
1554.292   0.9071   0.4289   1.0000   1
1554.328   1.1971   0.4737   1.0000   1
1554.365   1.0508   0.4483   1.0000   1
1554.402   1.2036   0.4753   1.0000   1
1554.439   0.8904   0.4256   1.0000   1
1554.475   1.0240   0.4480   1.0000   1
1554.512   0.9186   0.4286   1.0000   1
1554.549   1.1027   0.4598   1.0000   1
1554.585   1.1381   0.4665   1.0000   1
1554.622   1.3197   0.4906   1.0000   1
1554.659   1.0232   0.4491   1.0000   1
1554.696   1.0890   0.4573   1.0000   1
1554.732   0.9834   0.4393   1.0000   1
1554.769   1.0029   0.4443   1.0000   1
1554.806   1.1820   0.4681   1.0000   1
1554.842   1.2122   0.4716   1.0000   1
1554.879   1.1123   0.4597   1.0000   1
1554.916   0.9421   0.4352   1.0000   1
1554.953   1.3521   0.4914   1.0000   1
1554.989   1.1536   0.4669   1.0000   1
1555.026   1.1205   0.4638   1.0000   1
1555.063   1.1620   0.4691   1.0000   1
1555.099   1.0867   0.4517   1.0000   1
1555.136   1.1497   0.4545   1.0000   1
1555.173   1.2571   0.4845   1.0000   1
1555.209   1.0980   0.4594   1.0000   1
1555.246   1.0696   0.4571   1.0000   1
1555.283   1.2963   0.4913   1.0000   1
1555.320   0.9014   0.4285   1.0000   1
1555.356   1.1730   0.4721   1.0000   1
1555.393   1.1112   0.4649   1.0000   1
1555.430   1.0353   0.4503   1.0000   1
1555.466   1.5236   0.5185   1.0000   1
1555.503   1.1974   0.4767   1.0000   1
1555.540   0.9033   0.4257   1.0000   1
1555.577   1.0592   0.4556   1.0000   1
1555.613   0.8692   0.4254   1.0000   1
1555.650   0.9770   0.4455   1.0000   1
1555.687   0.8594   0.4264   1.0000   1
1555.723   0.6460   0.3858   1.0000   1
1555.760   1.0595   0.4565   1.0000   1
1555.797   0.9932   0.4476   1.0000   1
1555.834   0.8366   0.4199   1.0000   1
1555.870   1.1070   0.4513   1.0000   1
1555.907   1.0801   0.4609   1.0000   1
1555.944   1.1209   0.4664   1.0000   1
