# Best-fit normalized data and profile from VoigtFit
# column 1 : Wavelength
# column 2 : Normalized flux
# column 3 : Normalized error
# column 4 : Best-fit profile
# column 5 : Pixel mask, 1=included, 0=excluded
1202.498   1.0993   0.2439   1.0000   1
1202.528   0.9258   0.2264   1.0000   1
1202.558   1.0326   0.2429   1.0000   1
1202.588   1.1155   0.2490   1.0000   1
1202.618   1.0482   0.2455   1.0000   1
1202.648   1.1056   0.2517   1.0000   1
1202.678   1.1378   0.2552   1.0000   1
1202.707   1.0107   0.2439   1.0000   1
1202.737   0.8584   0.2251   1.0000   1
1202.767   1.1232   0.2526   1.0000   1
1202.797   0.9935   0.2431   1.0000   1
1202.827   0.9425   0.2377   1.0000   1
1202.857   0.9904   0.2416   1.0000   1
1202.887   1.0194   0.2411   1.0000   1
1202.917   0.8468   0.2271   1.0000   1
1202.947   0.9341   0.2363   1.0000   1
1202.976   0.8055   0.2226   1.0000   1
1203.006   0.8242   0.2239   1.0000   1
1203.036   1.1118   0.2508   1.0000   1
1203.066   0.9555   0.2348   1.0000   1
1203.096   1.0524   0.2478   1.0000   1
1203.126   1.0741   0.2469   1.0000   1
1203.156   0.8716   0.2290   1.0000   1
1203.186   0.9623   0.2375   1.0000   1
1203.215   0.8966   0.2268   1.0000   1
1203.245   0.8263   0.2179   1.0000   1
1203.275   0.8683   0.2261   1.0000   1
1203.305   1.1453   0.2501   1.0000   1
1203.335   0.8653   0.2253   1.0000   1
1203.365   0.8843   0.2263   1.0000   1
1203.395   0.8558   0.2250   1.0000   1
1203.425   0.9281   0.2332   1.0000   1
1203.454   0.9350   0.2299   1.0000   1
1203.484   0.9377   0.2336   1.0000   1
1203.514   0.9584   0.2376   1.0000   1
1203.544   0.9779   0.2363   1.0000   1
1203.574   1.1893   0.2567   1.0000   1
1203.604   0.9327   0.2344   1.0000   1
1203.634   1.1122   0.2507   1.0000   1
1203.664   1.2090   0.2605   1.0000   1
1203.694   1.1461   0.2538   1.0000   1
1203.723   0.9326   0.2310   1.0000   1
1203.753   0.9726   0.2362   1.0000   1
1203.783   1.0208   0.2445   1.0000   1
1203.813   1.0632   0.2424   1.0000   1
1203.843   1.1420   0.2550   1.0000   1
1203.873   1.0459   0.2463   1.0000   1
1203.903   1.0484   0.2442   1.0000   1
1203.933   1.2111   0.2618   1.0000   1
1203.962   0.9931   0.2397   1.0000   1
1203.992   0.9649   0.2376   1.0000   1
1204.022   0.8504   0.2265   1.0000   1
1204.052   1.0058   0.2423   1.0000   1
1204.082   0.9715   0.2386   1.0000   1
1204.112   1.2484   0.2644   1.0000   1
1204.142   0.8959   0.2328   1.0000   1
1204.172   1.1122   0.2509   1.0000   1
1204.201   1.0798   0.2476   1.0000   1
1204.231   1.2265   0.2631   1.0000   1
1204.261   1.0536   0.2481   1.0000   1
1204.291   0.9457   0.2362   1.0000   1
1204.321   1.1447   0.2556   1.0000   1
1204.351   1.2036   0.2578   1.0000   1
1204.381   0.8841   0.2271   1.0000   1
1204.411   1.0989   0.2520   1.0000   1
1204.441   0.9410   0.2369   1.0000   1
1204.470   1.0977   0.2481   1.0000   1
1204.500   0.9608   0.2393   1.0000   1
1204.530   0.8854   0.2332   1.0000   1
1204.560   1.1579   0.2567   1.0000   1
1204.590   1.0656   0.2506   1.0000   1
1204.620   1.0157   0.2426   1.0000   1
1204.650   1.2681   0.2689   1.0000   1
1204.680   1.0136   0.2446   1.0000   1
1204.709   0.9018   0.2334   1.0000   1
1204.739   0.8749   0.2308   1.0000   1
1204.769   0.9499   0.2382   1.0000   1
1204.799   1.0043   0.2400   1.0000   1
1204.829   0.8655   0.2295   1.0000   1
1204.859   1.0388   0.2480   1.0000   1
1204.889   1.0775   0.2514   1.0000   1
1204.919   0.8994   0.2337   1.0000   1
1204.948   1.2656   0.2662   1.0000   1
1204.978   0.9920   0.2437   1.0000   1
1205.008   0.9462   0.2364   1.0000   1
1205.038   0.9735   0.2442   0.9999   1
1205.068   1.0064   0.2396   0.9999   1
1205.098   1.1058   0.2566   0.9999   1
1205.128   1.0532   0.2505   0.9997   1
1205.158   0.9752   0.2395   0.9990   1
1205.188   1.0070   0.2345   0.9968   1
1205.217   0.9678   0.2415   0.9906   1
1205.247   0.7792   0.2225   0.9757   1
1205.277   0.8854   0.2339   0.9448   1
1205.307   0.7218   0.2080   0.8912   1
1205.337   0.9880   0.2425   0.8147   1
1205.367   0.8710   0.2294   0.7255   1
1205.397   0.6099   0.2045   0.6422   1
1205.427   0.6356   0.2031   0.5856   1
1205.456   0.4564   0.1847   0.5712   1
1205.486   0.6368   0.2043   0.6015   1
1205.516   0.6411   0.2106   0.6687   1
1205.546   0.8415   0.2323   0.7559   1
1205.576   0.7496   0.2248   0.8408   1
1205.606   1.0351   0.2523   0.8997   1
1205.636   0.9461   0.2448   0.9135   1
1205.666   0.8341   0.2299   0.8718   1
1205.696   0.8818   0.2363   0.7903   1
1205.725   0.5686   0.1985   0.7195   1
1205.755   0.9449   0.2437   0.7148   1
1205.785   0.7232   0.2198   0.7798   1
1205.815   0.8574   0.2302   0.8673   1
1205.845   0.8381   0.2337   0.9286   1
1205.875   1.0306   0.2520   0.9483   1
1205.905   1.1680   0.2662   0.9356   1
1205.935   0.9368   0.2447   0.9018   1
1205.964   0.9101   0.2355   0.8510   1
1205.994   0.7474   0.2184   0.7828   1
1206.024   0.6273   0.2058   0.6976   1
1206.054   0.5350   0.1903   0.5982   1
1206.084   0.4740   0.1843   0.4913   1
1206.114   0.4794   0.1853   0.3852   1
1206.144   0.3461   0.1652   0.2885   1
1206.174   0.2827   0.1442   0.2071   1
1206.203   0.0896   0.1066   0.1440   1
1206.233   0.0623   0.1030   0.0989   1
1206.263   0.0312   0.0977   0.0684   1
1206.293   0.0499   0.1057   0.0490   1
1206.323   0.0404   0.0995   0.0375   1
1206.353   0.0584   0.1021   0.0315   1
1206.383   0.0013   0.0872   0.0300   1
1206.413   0.0505   0.1023   0.0323   1
1206.443   0.1070   0.1133   0.0391   1
1206.472   0.1369   0.1210   0.0517   1
1206.502   0.0348   0.1006   0.0727   1
1206.532   0.0608   0.1032   0.1056   1
1206.562   0.1201   0.1167   0.1542   1
1206.592   0.3416   0.1597   0.2204   1
1206.622   0.3706   0.1640   0.3047   1
1206.652   0.3427   0.1571   0.4035   1
1206.682   0.5770   0.2040   0.5103   1
1206.711   0.5291   0.1915   0.6165   1
1206.741   0.8771   0.2403   0.7136   1
1206.771   0.7060   0.2173   0.7962   1
1206.801   0.8878   0.2374   0.8615   1
1206.831   0.7671   0.2215   0.9101   1
1206.861   0.8667   0.2391   0.9437   1
1206.891   1.0590   0.2602   0.9660   1
1206.921   1.0558   0.2596   0.9803   1
1206.950   0.9645   0.2479   0.9889   1
1206.980   0.8433   0.2295   0.9940   1
1207.010   0.9379   0.2438   0.9968   1
1207.040   1.0596   0.2598   0.9983   1
1207.070   0.9373   0.2477   0.9991   1
1207.100   0.9331   0.2479   0.9995   1
1207.130   1.1608   0.2683   0.9997   1
1207.160   0.7311   0.2206   0.9998   1
1207.190   0.9728   0.2517   0.9999   1
1207.219   1.2455   0.2764   0.9999   1
1207.249   0.9988   0.2500   0.9999   1
1207.279   0.9250   0.2417   0.9999   1
1207.309   1.2398   0.2751   0.9999   1
1207.339   1.0782   0.2624   0.9999   1
1207.369   1.0323   0.2584   0.9999   1
1207.399   1.1400   0.2686   0.9999   1
1207.429   1.0365   0.2542   1.0000   1
1207.458   1.0216   0.2570   1.0000   1
1207.488   0.7892   0.2304   1.0000   1
1207.518   1.2669   0.2810   1.0000   1
1207.548   1.1615   0.2661   1.0000   1
1207.578   0.8868   0.2446   1.0000   1
1207.608   1.0651   0.2575   1.0000   1
1207.638   0.8420   0.2399   1.0000   1
1207.668   0.9985   0.2584   1.0000   1
1207.698   0.8547   0.2352   1.0000   1
1207.727   1.2678   0.2865   1.0000   1
1207.757   1.0956   0.2689   1.0000   1
1207.787   0.8578   0.2411   1.0000   1
1207.817   1.4058   0.2966   1.0000   1
1207.847   1.1678   0.2732   1.0000   1
1207.877   0.9930   0.2564   1.0000   1
1207.907   0.9703   0.2558   1.0000   1
1207.937   0.7976   0.2389   1.0000   1
1207.966   0.9992   0.2611   1.0000   1
1207.996   1.0501   0.2636   1.0000   1
1208.026   1.1911   0.2780   1.0000   1
1208.056   1.0501   0.2615   1.0000   1
1208.086   1.1706   0.2728   1.0000   1
1208.116   1.2484   0.2798   1.0000   1
1208.146   0.8212   0.2362   1.0000   1
1208.176   0.7781   0.2347   1.0000   1
1208.206   0.9801   0.2518   1.0000   1
1208.235   1.0758   0.2663   1.0000   1
1208.265   1.1010   0.2652   1.0000   1
1208.295   0.9761   0.2562   1.0000   1
1208.325   1.0610   0.2645   1.0000   1
1208.355   1.1268   0.2723   1.0000   1
1208.385   1.0279   0.2574   1.0000   1
1208.415   1.1355   0.2707   1.0000   1
1208.445   1.1098   0.2687   1.0000   1
1208.474   0.8514   0.2399   1.0000   1
1208.504   1.0843   0.2679   1.0000   1
1208.534   0.8685   0.2485   1.0000   1
1208.564   1.1011   0.2663   1.0000   1
1208.594   1.0005   0.2598   1.0000   1
1208.624   0.9759   0.2547   1.0000   1
1208.654   1.1709   0.2775   1.0000   1
1208.684   1.0087   0.2611   1.0000   1
1208.713   1.2566   0.2858   1.0000   1
1208.743   1.0878   0.2693   1.0000   1
1208.773   1.0192   0.2651   1.0000   1
1208.803   1.1078   0.2708   1.0000   1
1208.833   1.0736   0.2711   1.0000   1
1208.863   1.0066   0.2660   1.0000   1
1208.893   0.9690   0.2571   1.0000   1
1208.923   0.8907   0.2538   1.0000   1
1208.953   1.0190   0.2618   1.0000   1
1208.982   1.1315   0.2776   1.0000   1
1209.012   0.9787   0.2633   1.0000   1
1209.042   1.0516   0.2686   1.0000   1
1209.072   0.9070   0.2538   1.0000   1
1209.102   1.2346   0.2820   1.0000   1
1209.132   0.8819   0.2484   1.0000   1
1209.162   1.0998   0.2712   1.0000   1
1209.192   1.1199   0.2761   1.0000   1
1209.221   1.0737   0.2731   1.0000   1
1209.251   1.0550   0.2716   1.0000   1
1209.281   1.0299   0.2645   1.0000   1
1209.311   0.7662   0.2218   1.0000   1
1209.341   0.9059   0.2475   1.0000   1
1209.371   0.6609   0.2283   1.0000   1
1209.401   0.7609   0.2388   1.0000   1
1209.431   0.7719   0.2335   1.0000   1
1209.460   0.8987   0.2514   1.0000   1
1209.490   1.0639   0.2624   1.0000   1
1209.520   0.9440   0.2594   1.0000   1
1209.550   0.8943   0.2476   1.0000   1
1209.580   1.1072   0.2721   1.0000   1
1209.610   1.0547   0.2710   1.0000   1
1209.640   1.2879   0.2933   1.0000   1
1209.670   1.0416   0.2693   1.0000   1
1209.700   0.9105   0.2541   1.0000   1
1209.729   1.0777   0.2727   1.0000   1
1209.759   1.0765   0.2721   1.0000   1
1209.789   1.2264   0.2921   1.0000   1
1209.819   0.9631   0.2618   1.0000   1
1209.849   1.0703   0.2730   1.0000   1
1209.879   0.9374   0.2610   1.0000   1
1209.909   1.1237   0.2807   1.0000   1
1209.939   1.2319   0.2914   1.0000   1
1209.968   1.0429   0.2728   1.0000   1
1209.998   1.0592   0.2707   1.0000   1
1210.028   1.3173   0.2986   1.0000   1
1210.058   0.8592   0.2523   1.0000   1
1210.088   0.9696   0.2636   1.0000   1
1210.118   1.0703   0.2753   1.0000   1
1210.148   0.7205   0.2332   1.0000   1
1210.178   0.9791   0.2669   1.0000   1
1210.207   0.9358   0.2600   1.0000   1
1210.237   1.1637   0.2833   1.0000   1
1210.267   1.0687   0.2764   1.0000   1
1210.297   1.0090   0.2705   1.0000   1
1210.327   0.8926   0.2578   1.0000   1
1210.357   0.9633   0.2687   1.0000   1
1210.387   0.9317   0.2652   1.0000   1
1210.417   0.9968   0.2679   1.0000   1
1210.447   0.7727   0.2325   1.0000   1
1210.476   0.9334   0.2598   1.0000   1
1210.506   0.8659   0.2601   1.0000   1
