# Best-fit normalized data and profile from VoigtFit
# column 1 : Wavelength
# column 2 : Normalized flux
# column 3 : Normalized error
# column 4 : Best-fit profile
# column 5 : Pixel mask, 1=included, 0=excluded
1189.321   1.0639   0.2354   1.0000   1
1189.351   0.8714   0.2181   1.0000   0
1189.381   0.9067   0.2170   1.0000   0
1189.411   0.9797   0.2302   1.0000   0
1189.440   0.9707   0.2279   1.0000   0
1189.470   0.9764   0.2265   1.0000   0
1189.500   0.8569   0.2156   1.0000   0
1189.530   1.0240   0.2304   1.0000   0
1189.560   1.0166   0.2259   1.0000   0
1189.590   1.0257   0.2316   1.0000   0
1189.620   0.9545   0.2231   1.0000   0
1189.650   1.0508   0.2309   1.0000   0
1189.679   1.0943   0.2326   1.0000   0
1189.709   0.9096   0.2189   1.0000   0
1189.739   0.7018   0.1984   1.0000   0
1189.769   0.9333   0.2206   1.0000   0
1189.799   0.8599   0.2134   1.0000   0
1189.829   0.9522   0.2206   1.0000   0
1189.859   1.0091   0.2244   1.0000   0
1189.889   0.9079   0.2177   1.0000   0
1189.919   0.8599   0.2086   1.0000   0
1189.948   1.0533   0.2340   1.0000   0
1189.978   0.6700   0.1915   1.0000   0
1190.008   0.8644   0.2157   1.0000   0
1190.038   0.7251   0.2019   1.0000   0
1190.068   0.7738   0.2039   1.0000   0
1190.098   0.5680   0.1758   1.0000   0
1190.128   0.5646   0.1803   1.0000   0
1190.158   0.4791   0.1708   1.0000   0
1190.187   0.3997   0.1563   1.0000   0
1190.217   0.3633   0.1560   1.0000   0
1190.247   0.1925   0.1220   1.0000   0
1190.277   0.1547   0.1137   1.0000   0
1190.307   0.1532   0.1116   1.0000   0
1190.337   0.0585   0.0889   1.0000   0
1190.367   0.0952   0.0964   1.0000   0
1190.397   0.1737   0.1173   1.0000   0
1190.427   0.1570   0.1096   1.0000   0
1190.456   0.2836   0.1368   1.0000   0
1190.486   0.4465   0.1652   1.0000   0
1190.516   0.6851   0.1887   1.0000   0
1190.546   0.7407   0.1985   1.0000   0
1190.576   0.7033   0.2002   1.0000   0
1190.606   1.1247   0.2416   1.0000   0
1190.636   0.9180   0.2217   1.0000   0
1190.666   0.8916   0.2177   1.0000   0
1190.695   0.8445   0.2141   1.0000   0
1190.725   0.9277   0.2164   1.0000   0
1190.755   1.2792   0.2545   1.0000   0
1190.785   0.9607   0.2270   1.0000   0
1190.815   1.0805   0.2387   1.0000   0
1190.845   0.9204   0.2229   1.0000   0
1190.875   0.8999   0.2202   1.0000   0
1190.905   0.8944   0.2206   1.0000   1
1190.934   0.9500   0.2255   1.0000   1
1190.964   1.0254   0.2357   1.0000   1
1190.994   1.1730   0.2468   1.0000   1
1191.024   0.9932   0.2303   1.0000   1
1191.054   1.0423   0.2348   1.0000   1
1191.084   1.0192   0.2312   1.0000   1
1191.114   0.8917   0.2190   1.0000   1
1191.144   0.9825   0.2292   1.0000   1
1191.174   1.1328   0.2426   1.0000   1
1191.203   0.9034   0.2197   1.0000   1
1191.233   1.0902   0.2325   1.0000   1
1191.263   1.0548   0.2332   1.0000   1
1191.293   1.0256   0.2299   1.0000   1
1191.323   0.8941   0.2186   1.0000   1
1191.353   1.1181   0.2412   1.0000   1
1191.383   0.8907   0.2157   1.0000   1
1191.413   1.0674   0.2333   1.0000   1
1191.442   0.8857   0.2144   1.0000   1
1191.472   1.0979   0.2364   1.0000   1
1191.502   0.9532   0.2245   1.0000   1
1191.532   1.0820   0.2361   1.0000   1
1191.562   0.9477   0.2225   1.0000   1
1191.592   1.1588   0.2427   1.0000   1
1191.622   0.8774   0.2151   1.0000   1
1191.652   0.8798   0.2127   1.0000   1
1191.681   1.0983   0.2352   1.0000   1
1191.711   1.0281   0.2344   1.0000   1
1191.741   1.0338   0.2313   1.0000   1
1191.771   0.8564   0.2135   1.0000   1
1191.801   0.9845   0.2281   1.0000   1
1191.831   1.2392   0.2532   1.0000   1
1191.861   1.0382   0.2322   0.9999   1
1191.891   0.9440   0.2246   0.9999   1
1191.921   1.1382   0.2418   0.9999   1
1191.950   1.0507   0.2339   0.9999   1
1191.980   1.2359   0.2523   0.9999   1
1192.010   1.1744   0.2412   0.9999   1
1192.040   0.9588   0.2285   0.9999   1
1192.070   1.0288   0.2338   0.9999   1
1192.100   1.1154   0.2446   0.9999   1
1192.130   0.9847   0.2328   0.9998   1
1192.160   1.0562   0.2368   0.9985   1
1192.189   0.9891   0.2312   0.9865   1
1192.219   0.8952   0.2207   0.9272   1
1192.249   0.8496   0.2201   0.8179   1
1192.279   0.7581   0.2096   0.7779   1
1192.309   0.8765   0.2214   0.8669   1
1192.339   0.9595   0.2241   0.9620   1
1192.369   0.9989   0.2255   0.9945   1
1192.399   1.2810   0.2558   0.9994   1
1192.429   0.9905   0.2320   0.9998   1
1192.458   0.9117   0.2211   0.9998   1
1192.488   0.8211   0.2125   0.9998   1
1192.518   0.9897   0.2295   0.9997   1
1192.548   1.0475   0.2342   0.9997   1
1192.578   0.9422   0.2249   0.9995   1
1192.608   1.0641   0.2361   0.9989   1
1192.638   1.0990   0.2408   0.9963   1
1192.668   0.9082   0.2162   0.9877   1
1192.697   0.9159   0.2219   0.9620   1
1192.727   0.9879   0.2289   0.9028   1
1192.757   0.8062   0.2121   0.7956   1
1192.787   0.5831   0.1861   0.6440   1
1192.817   0.5060   0.1748   0.4782   1
1192.847   0.3815   0.1589   0.3413   1
1192.877   0.2198   0.1279   0.2590   1
1192.907   0.2370   0.1329   0.2297   1
1192.937   0.2234   0.1284   0.2335   1
1192.966   0.3287   0.1481   0.2408   1
1192.996   0.1643   0.1138   0.2240   1
1193.026   0.1982   0.1237   0.1772   1
1193.056   0.1153   0.1074   0.1194   1
1193.086   0.0815   0.0973   0.0713   1
1193.116   0.0253   0.0789   0.0411   1
1193.146   0.0595   0.0908   0.0260   1
1193.176   0.0428   0.0879   0.0216   1
1193.205   0.0600   0.0912   0.0254   1
1193.235   0.0297   0.0837   0.0396   1
1193.265   0.0458   0.0861   0.0711   1
1193.295   0.1218   0.1069   0.1304   1
1193.325   0.2163   0.1199   0.2277   1
1193.355   0.3619   0.1530   0.3626   1
1193.385   0.5821   0.1875   0.5188   1
1193.415   0.6658   0.1890   0.6713   1
1193.444   0.8034   0.2136   0.7979   1
1193.474   0.9752   0.2306   0.8878   1
1193.504   0.8419   0.2152   0.9428   1
1193.534   0.9108   0.2203   0.9732   1
1193.564   0.9699   0.2311   0.9883   1
1193.594   0.9233   0.2279   0.9952   1
1193.624   0.7996   0.2125   0.9980   1
1193.654   0.9326   0.2279   0.9991   1
1193.684   0.9918   0.2344   0.9995   1
1193.713   0.9195   0.2212   0.9997   1
1193.743   0.8888   0.2224   0.9998   1
1193.773   0.9040   0.2235   0.9998   1
1193.803   0.9344   0.2267   0.9998   1
1193.833   1.0412   0.2368   0.9998   1
1193.863   0.9677   0.2246   0.9999   1
1193.893   0.9784   0.2321   0.9999   1
1193.923   0.8412   0.2202   0.9999   1
1193.952   0.9375   0.2274   0.9999   1
1193.982   0.8772   0.2172   0.9999   1
1194.012   0.8409   0.2103   0.9999   1
1194.042   1.0412   0.2390   0.9999   1
1194.072   1.1739   0.2472   0.9999   1
1194.102   0.8944   0.2171   0.9999   1
1194.132   1.1334   0.2459   0.9999   1
1194.162   0.8064   0.2127   0.9999   1
1194.191   0.9184   0.2280   0.9999   1
1194.221   0.9727   0.2349   0.9999   1
1194.251   1.1022   0.2465   0.9999   1
1194.281   1.1714   0.2551   0.9999   1
1194.311   1.0733   0.2459   0.9999   1
1194.341   1.1007   0.2471   1.0000   1
1194.371   0.7021   0.2039   1.0000   1
1194.401   1.0475   0.2433   1.0000   1
1194.431   0.8538   0.2252   1.0000   1
1194.460   1.2441   0.2623   1.0000   1
1194.490   1.1429   0.2540   1.0000   1
1194.520   1.0175   0.2379   1.0000   1
1194.550   1.0053   0.2343   1.0000   1
1194.580   1.0447   0.2416   1.0000   0
1194.610   1.0999   0.2462   1.0000   0
1194.640   0.9496   0.2338   1.0000   0
1194.670   1.0466   0.2398   1.0000   0
1194.699   0.9417   0.2297   1.0000   0
1194.729   0.8936   0.2275   1.0000   0
1194.759   0.9304   0.2297   1.0000   0
1194.789   0.8385   0.2159   1.0000   0
1194.819   0.6768   0.1989   1.0000   0
1194.849   0.5637   0.1881   1.0000   0
1194.879   0.5463   0.1845   1.0000   0
1194.909   0.5552   0.1798   1.0000   0
1194.938   0.5378   0.1813   1.0000   0
1194.968   0.4483   0.1708   1.0000   0
1194.998   0.3735   0.1582   1.0000   0
1195.028   0.2329   0.1312   1.0000   0
1195.058   0.2822   0.1420   1.0000   0
1195.088   0.3289   0.1441   1.0000   0
1195.118   0.4775   0.1591   1.0000   0
1195.148   0.6246   0.1933   1.0000   0
1195.178   0.8381   0.2189   1.0000   0
1195.207   0.9388   0.2291   1.0000   0
1195.237   1.1511   0.2479   1.0000   0
1195.267   1.0186   0.2308   1.0000   0
1195.297   1.1660   0.2472   1.0000   0
1195.327   1.0429   0.2415   1.0000   1
1195.357   1.0060   0.2379   1.0000   1
1195.387   1.2787   0.2603   1.0000   1
1195.417   1.2246   0.2580   1.0000   1
1195.446   1.0384   0.2395   1.0000   1
1195.476   0.8721   0.2199   1.0000   1
1195.506   1.1449   0.2489   1.0000   1
1195.536   1.0866   0.2438   1.0000   1
1195.566   0.9228   0.2242   1.0000   1
1195.596   1.1210   0.2397   1.0000   1
1195.626   0.8844   0.2252   1.0000   1
1195.656   0.9385   0.2296   1.0000   1
1195.686   0.8718   0.2234   1.0000   1
1195.715   1.0632   0.2379   1.0000   1
1195.745   1.1948   0.2546   1.0000   1
1195.775   0.8734   0.2212   1.0000   1
1195.805   0.9550   0.2325   1.0000   1
1195.835   1.0181   0.2376   1.0000   1
1195.865   1.0472   0.2416   1.0000   1
1195.895   1.0056   0.2376   1.0000   1
1195.925   1.0913   0.2462   1.0000   1
1195.954   1.2644   0.2619   1.0000   1
1195.984   0.9146   0.2269   1.0000   1
1196.014   0.9065   0.2232   1.0000   1
1196.044   0.9009   0.2265   1.0000   1
1196.074   0.9291   0.2313   1.0000   1
1196.104   1.0272   0.2407   1.0000   1
1196.134   0.9800   0.2359   1.0000   1
1196.164   0.9980   0.2386   1.0000   1
1196.193   1.1385   0.2515   1.0000   1
1196.223   1.0544   0.2446   1.0000   1
1196.253   1.0301   0.2430   1.0000   1
1196.283   0.9657   0.2368   1.0000   1
1196.313   1.0984   0.2434   1.0000   1
1196.343   0.9619   0.2304   1.0000   1
1196.373   1.1762   0.2548   1.0000   1
1196.403   1.0011   0.2333   1.0000   1
1196.433   0.9972   0.2388   1.0000   1
1196.462   0.9043   0.2301   1.0000   1
1196.492   1.0255   0.2388   1.0000   1
1196.522   1.1126   0.2511   1.0000   1
1196.552   1.0303   0.2435   1.0000   1
1196.582   0.8904   0.2294   1.0000   1
1196.612   1.1260   0.2503   1.0000   1
1196.642   1.0131   0.2394   1.0000   1
1196.672   0.9208   0.2263   1.0000   1
1196.701   0.8746   0.2212   1.0000   1
1196.731   0.9215   0.2310   1.0000   1
1196.761   1.1143   0.2509   1.0000   1
1196.791   1.0222   0.2432   1.0000   1
1196.821   1.0870   0.2467   1.0000   1
1196.851   1.2293   0.2616   1.0000   1
1196.881   1.0459   0.2445   1.0000   1
1196.911   1.0165   0.2419   1.0000   1
1196.940   1.0880   0.2493   1.0000   1
1196.970   1.1668   0.2549   1.0000   1
1197.000   1.1280   0.2526   1.0000   1
1197.030   1.1456   0.2578   1.0000   1
1197.060   0.8769   0.2309   1.0000   1
1197.090   0.9852   0.2423   1.0000   1
1197.120   0.9599   0.2411   1.0000   1
1197.150   0.9015   0.2311   1.0000   1
1197.180   0.8965   0.2306   1.0000   1
1197.209   0.9622   0.2395   1.0000   1
1197.239   0.9292   0.2266   1.0000   1
1197.269   0.9292   0.2340   1.0000   1
