# Best-fit normalized data and profile from VoigtFit
# column 1 : Wavelength
# column 2 : Normalized flux
# column 3 : Normalized error
# column 4 : Best-fit profile
# column 5 : Pixel mask, 1=included, 0=excluded
1330.105   1.0342   0.4750   1.0000   1
1330.134   0.9430   0.4605   1.0000   1
1330.164   1.1046   0.4824   1.0000   1
1330.194   1.1705   0.4980   1.0000   1
1330.224   1.0232   0.4800   1.0000   1
1330.254   1.3304   0.5185   1.0000   1
1330.284   1.4876   0.5468   1.0000   1
1330.314   1.3214   0.5203   1.0000   1
1330.344   1.0004   0.4730   1.0000   1
1330.374   0.9885   0.4680   1.0000   1
1330.403   0.6771   0.3983   1.0000   1
1330.433   0.9909   0.4506   1.0000   1
1330.463   1.1369   0.4948   1.0000   1
1330.493   0.7307   0.4262   1.0000   1
1330.523   0.8793   0.4562   1.0000   1
1330.553   1.0254   0.4747   1.0000   1
1330.583   1.3084   0.5215   1.0000   1
1330.613   1.2869   0.5133   1.0000   1
1330.643   0.8999   0.4546   1.0000   1
1330.673   0.9928   0.4602   1.0000   1
1330.703   0.8987   0.4599   1.0000   1
1330.732   0.6148   0.4002   1.0000   1
1330.762   1.1890   0.5027   1.0000   1
1330.792   1.1865   0.4932   1.0000   1
1330.822   1.1199   0.4905   1.0000   1
1330.852   0.9129   0.4645   1.0000   1
1330.882   1.0836   0.4837   1.0000   1
1330.912   0.7681   0.4392   1.0000   1
1330.942   0.7818   0.4414   1.0000   1
1330.972   0.7644   0.4185   1.0000   1
1331.002   0.6764   0.4186   1.0000   1
1331.031   0.8168   0.4222   1.0000   1
1331.061   0.8702   0.4536   1.0000   1
1331.091   1.1674   0.4931   1.0000   1
1331.121   0.9808   0.4748   1.0000   1
1331.151   0.8180   0.4221   1.0000   1
1331.181   1.1989   0.5084   1.0000   1
1331.211   1.2202   0.4999   1.0000   1
1331.241   1.2591   0.5124   1.0000   1
1331.271   0.8563   0.4468   1.0000   1
1331.300   1.0951   0.4952   1.0000   1
1331.330   0.9885   0.4784   1.0000   1
1331.360   1.0445   0.4843   1.0000   1
1331.390   0.9000   0.4595   1.0000   1
1331.420   1.3575   0.5298   1.0000   1
1331.450   1.2126   0.4910   1.0000   1
1331.480   0.8782   0.4528   1.0000   1
1331.510   0.9375   0.4650   1.0000   1
1331.540   0.7670   0.4337   1.0000   1
1331.570   0.9658   0.4690   1.0000   1
1331.599   1.2229   0.5108   1.0000   1
1331.629   1.5459   0.5600   1.0000   1
1331.659   1.3458   0.5298   1.0000   1
1331.689   1.2574   0.5204   1.0000   1
1331.719   1.1033   0.4882   1.0000   1
1331.749   0.9232   0.4707   1.0000   1
1331.779   1.0094   0.4840   1.0000   1
1331.809   1.3048   0.5243   1.0000   1
1331.839   1.0277   0.4767   1.0000   1
1331.869   0.8863   0.4541   1.0000   1
1331.898   1.0973   0.4903   1.0000   1
1331.928   0.5344   0.3932   1.0000   1
1331.958   0.7500   0.4434   1.0000   1
1331.988   0.6703   0.4144   1.0000   1
1332.018   1.4846   0.5604   1.0000   1
1332.048   1.1657   0.5198   1.0000   1
1332.078   0.9531   0.4784   1.0000   1
1332.108   0.9851   0.4931   1.0000   1
1332.138   1.1578   0.5257   1.0000   1
1332.168   1.0050   0.4960   1.0000   1
1332.197   0.8975   0.4747   1.0000   1
1332.227   1.0660   0.5051   1.0000   1
1332.257   1.1899   0.5337   1.0000   1
1332.287   0.9734   0.4908   1.0000   1
1332.317   1.0901   0.5123   1.0000   1
1332.347   1.0936   0.5102   1.0000   1
1332.377   0.9620   0.4857   1.0000   1
1332.407   1.0663   0.4918   1.0000   1
1332.437   1.1956   0.5071   1.0000   1
1332.467   1.0689   0.4946   1.0000   1
1332.496   0.8822   0.4627   1.0000   1
1332.526   1.2809   0.5105   1.0000   1
1332.556   0.8952   0.4582   1.0000   1
1332.586   0.7312   0.4052   1.0000   1
1332.616   0.8720   0.4421   1.0000   1
1332.646   1.1984   0.5127   1.0000   1
1332.676   0.7657   0.4400   1.0000   1
1332.706   0.9797   0.4769   0.9999   1
1332.736   0.8947   0.4503   0.9998   1
1332.766   1.2321   0.5172   0.9994   1
1332.795   1.2337   0.5087   0.9986   1
1332.825   1.0995   0.4979   0.9968   1
1332.855   0.9442   0.4680   0.9929   1
1332.885   0.7633   0.4342   0.9849   1
1332.915   1.1302   0.4932   0.9702   1
1332.945   0.7026   0.4300   0.9449   1
1332.975   0.8369   0.4230   0.9045   1
1333.005   0.7403   0.4371   0.8444   1
1333.035   0.6622   0.4248   0.7642   1
1333.065   0.9386   0.4698   0.6671   1
1333.094   0.7234   0.4118   0.5604   1
1333.124   0.5401   0.4003   0.4554   1
1333.154   0.2794   0.3271   0.3621   1
1333.184   0.2225   0.3029   0.2876   1
1333.214   0.3257   0.3467   0.2350   1
1333.244   0.1907   0.2859   0.2050   1
1333.274   0.0729   0.2670   0.1954   1
1333.304   0.1216   0.2755   0.2055   1
1333.334   0.3653   0.3375   0.2359   1
1333.363   0.4064   0.3653   0.2874   1
1333.393   0.4467   0.3484   0.3570   1
1333.423   0.4931   0.3713   0.4373   1
1333.453   0.3923   0.3461   0.5145   1
1333.483   0.5423   0.3790   0.5695   1
1333.513   0.6051   0.4039   0.5881   1
1333.543   0.4532   0.3519   0.5660   1
1333.573   0.6310   0.4189   0.5117   1
1333.603   0.5496   0.3935   0.4437   1
1333.633   0.2953   0.3299   0.3823   1
1333.662   0.4698   0.3708   0.3412   1
1333.692   0.2561   0.2990   0.3281   1
1333.722   0.4257   0.3731   0.3473   1
1333.752   0.4142   0.3549   0.3979   1
1333.782   0.3920   0.3558   0.4768   1
1333.812   0.5326   0.3777   0.5765   1
1333.842   0.5902   0.4042   0.6840   1
1333.872   1.1425   0.4924   0.7841   1
1333.902   1.1531   0.5044   0.8658   1
1333.932   0.5465   0.3768   0.9244   1
1333.961   1.1052   0.5005   0.9609   1
1333.991   1.2355   0.5129   0.9815   1
1334.021   1.0792   0.4949   0.9917   1
1334.051   1.2778   0.5307   0.9959   1
1334.081   1.6964   0.5730   0.9960   1
1334.111   1.0084   0.4781   0.9923   1
1334.141   1.1822   0.5062   0.9822   1
1334.171   1.0743   0.4999   0.9607   1
1334.201   1.2410   0.5184   0.9183   1
1334.231   0.6731   0.3994   0.8461   1
1334.260   0.9666   0.4822   0.7380   1
1334.290   0.4487   0.3631   0.5968   1
1334.320   0.6289   0.4140   0.4387   1
1334.350   0.2417   0.3033   0.2901   1
1334.380   0.1166   0.2793   0.1720   1
1334.410   0.1182   0.2860   0.0925   1
1334.440   0.0456   0.2496   0.0481   1
1334.470   0.0064   0.2387   0.0261   1
1334.500   0.0143   0.2435   0.0172   1
1334.530   0.0719   0.2634   0.0165   1
1334.559   0.0016   0.2405   0.0237   1
1334.589   0.0310   0.2446   0.0429   1
1334.619   -0.0228   0.2408   0.0828   1
1334.649   0.4671   0.3591   0.1542   1
1334.679   0.2650   0.3290   0.2657   1
1334.709   0.4324   0.3525   0.4103   1
1334.739   0.5460   0.3985   0.5684   1
1334.769   0.5982   0.4057   0.7149   1
1334.799   0.7770   0.4418   0.8295   1
1334.829   0.9872   0.4834   0.9076   1
1334.858   0.9191   0.4830   0.9544   1
1334.888   0.9520   0.4815   0.9796   1
1334.918   0.7597   0.4224   0.9914   1
1334.948   0.8060   0.4662   0.9966   1
1334.978   0.9672   0.4931   0.9988   1
1335.008   1.1677   0.5285   0.9996   1
1335.038   0.9405   0.5037   0.9998   1
1335.068   1.2412   0.5463   0.9999   1
1335.098   1.0955   0.5220   1.0000   1
1335.128   1.2442   0.5246   1.0000   1
1335.157   1.0849   0.5098   1.0000   1
1335.187   1.0658   0.5093   1.0000   1
1335.217   1.0425   0.4989   1.0000   1
1335.247   0.8633   0.4688   1.0000   1
1335.277   0.8130   0.4545   1.0000   1
1335.307   1.4624   0.5577   1.0000   1
1335.337   0.9564   0.4724   1.0000   1
1335.367   1.2461   0.5247   1.0000   1
1335.397   0.6066   0.4147   1.0000   1
1335.427   1.5305   0.5681   1.0000   1
1335.456   1.3177   0.5379   1.0000   1
1335.486   0.9350   0.4814   1.0000   1
1335.516   1.0830   0.5015   1.0000   1
1335.546   1.0130   0.4701   1.0000   1
1335.576   0.7579   0.4290   1.0000   1
1335.606   0.8627   0.4697   1.0000   1
1335.636   0.7408   0.4444   1.0000   1
1335.666   0.5578   0.3948   1.0000   1
1335.696   0.5050   0.3933   1.0000   1
1335.726   0.9150   0.4808   1.0000   1
1335.755   0.3921   0.3629   1.0000   1
1335.785   1.0416   0.4989   1.0000   1
1335.815   0.8980   0.4690   1.0000   1
1335.845   0.9221   0.4484   1.0000   1
1335.875   0.7880   0.4544   1.0000   1
1335.905   0.8682   0.4575   1.0000   1
1335.935   0.9447   0.4865   1.0000   1
1335.965   0.9510   0.4741   1.0000   1
1335.995   1.3786   0.5531   1.0000   1
1336.025   1.4344   0.5463   1.0000   1
1336.054   0.8565   0.4507   1.0000   1
1336.084   0.7974   0.4487   1.0000   1
1336.114   1.1298   0.5030   1.0000   1
1336.144   1.2710   0.5302   1.0000   1
1336.174   1.1445   0.5151   1.0000   1
1336.204   1.6697   0.5822   1.0000   1
1336.234   1.1133   0.5115   1.0000   1
1336.264   1.0093   0.4934   1.0000   1
1336.294   1.2382   0.5345   1.0000   1
1336.323   0.8664   0.4757   1.0000   1
1336.353   1.0173   0.4996   1.0000   1
1336.383   1.0408   0.5059   1.0000   1
1336.413   0.8131   0.4577   1.0000   1
1336.443   1.1727   0.5121   1.0000   1
1336.473   1.0776   0.5083   1.0000   1
1336.503   1.2359   0.5338   1.0000   1
1336.533   0.9616   0.4878   1.0000   1
1336.563   1.1229   0.5144   1.0000   1
1336.593   1.1924   0.5309   1.0000   1
1336.622   1.0451   0.4893   1.0000   1
1336.652   0.9472   0.4916   1.0000   1
1336.682   1.0083   0.4987   1.0000   1
1336.712   0.8439   0.4667   1.0000   1
1336.742   1.2538   0.5380   1.0000   1
1336.772   1.0644   0.5086   1.0000   1
1336.802   1.0788   0.5109   1.0000   1
1336.832   0.8294   0.4582   1.0000   1
1336.862   1.2202   0.5338   1.0000   1
1336.892   1.0207   0.5026   1.0000   1
1336.921   1.4394   0.5613   1.0000   1
1336.951   1.2945   0.5468   1.0000   1
1336.981   0.7895   0.4600   1.0000   1
1337.011   1.5327   0.5783   1.0000   1
1337.041   1.2452   0.5397   1.0000   1
1337.071   1.2457   0.5355   1.0000   1
1337.101   1.1549   0.5225   1.0000   1
1337.131   1.4028   0.5594   1.0000   1
1337.161   1.2683   0.5378   1.0000   1
1337.191   1.2320   0.5317   1.0000   1
1337.220   1.0615   0.4974   1.0000   1
1337.250   1.0955   0.5014   1.0000   1
1337.280   0.7679   0.4494   1.0000   1
1337.310   0.8822   0.4745   1.0000   1
1337.340   1.4425   0.5511   1.0000   1
1337.370   1.2574   0.5309   1.0000   1
1337.400   1.2828   0.5447   1.0000   1
1337.430   1.3031   0.5390   1.0000   1
1337.460   0.9907   0.4717   1.0000   1
1337.490   1.0248   0.4974   1.0000   1
1337.519   1.0710   0.5090   1.0000   1
1337.549   1.4426   0.5665   1.0000   1
1337.579   1.4009   0.5592   1.0000   1
1337.609   1.0711   0.5081   1.0000   1
1337.639   1.2504   0.5385   1.0000   1
1337.669   1.4385   0.5662   1.0000   1
1337.699   1.3733   0.5456   1.0000   1
1337.729   0.6154   0.4294   1.0000   1
1337.759   0.8893   0.4787   1.0000   1
1337.789   1.3304   0.5389   1.0000   1
1337.818   0.7964   0.4624   1.0000   1
1337.848   0.7469   0.4314   1.0000   1
1337.878   0.9420   0.4901   1.0000   1
1337.908   0.9915   0.4974   1.0000   1
1337.938   1.2124   0.5285   1.0000   1
1337.968   0.7619   0.4592   1.0000   1
1337.998   0.4944   0.4011   1.0000   1
1338.028   0.5810   0.4198   1.0000   1
1338.058   0.5987   0.3900   1.0000   1
1338.088   0.7481   0.4506   1.0000   1
1338.117   0.7657   0.4652   1.0000   1
1338.147   0.7250   0.4375   1.0000   1
1338.177   0.4510   0.3739   1.0000   1
1338.207   0.5451   0.3870   1.0000   1
1338.237   1.0500   0.5027   1.0000   1
1338.267   1.2690   0.5366   1.0000   1
1338.297   1.3103   0.5142   1.0000   1
1338.327   1.2393   0.5339   1.0000   1
1338.357   1.0344   0.4919   1.0000   1
1338.387   1.3953   0.5566   1.0000   1
1338.416   1.3271   0.5536   1.0000   1
1338.446   0.9114   0.4728   1.0000   1
1338.476   1.0193   0.4925   1.0000   1
1338.506   0.6928   0.4367   1.0000   1
1338.536   1.0149   0.4988   1.0000   1
1338.566   1.4242   0.5576   1.0000   1
1338.596   1.0690   0.5142   1.0000   1
1338.626   1.1548   0.5222   1.0000   1
1338.656   0.9061   0.4902   1.0000   1
1338.686   1.3196   0.5529   1.0000   1
1338.715   1.0741   0.5163   1.0000   1
1338.745   0.8253   0.4690   1.0000   1
1338.775   0.9420   0.4920   1.0000   1
1338.805   1.1824   0.5163   1.0000   1
1338.835   1.0447   0.5003   1.0000   1
1338.865   0.9435   0.4706   1.0000   1
1338.895   1.4277   0.5694   1.0000   1
1338.925   1.0005   0.4902   1.0000   1
1338.955   1.1186   0.5097   1.0000   1
