# Best-fit normalized data and profile from VoigtFit
# column 1 : Wavelength
# column 2 : Normalized flux
# column 3 : Normalized error
# column 4 : Best-fit profile
# column 5 : Pixel mask, 1=included, 0=excluded
1202.478   0.9295   0.2428   1.0000   1
1202.508   0.9278   0.2426   1.0000   1
1202.538   0.9894   0.2492   1.0000   1
1202.567   0.8690   0.2357   1.0000   1
1202.597   1.0865   0.2587   1.0000   1
1202.627   0.7977   0.2292   1.0000   1
1202.657   0.8476   0.2341   1.0000   1
1202.687   1.1254   0.2637   1.0000   1
1202.717   0.8509   0.2350   1.0000   1
1202.747   0.7869   0.2279   1.0000   1
1202.777   0.9478   0.2463   1.0000   1
1202.807   1.0633   0.2564   1.0000   1
1202.836   1.0554   0.2576   1.0000   1
1202.866   1.0038   0.2524   1.0000   1
1202.896   0.7854   0.2291   1.0000   1
1202.926   0.8835   0.2395   1.0000   1
1202.956   0.9684   0.2478   1.0000   1
1202.986   1.0410   0.2562   1.0000   1
1203.016   0.9456   0.2472   1.0000   1
1203.046   0.8366   0.2348   1.0000   1
1203.075   1.0324   0.2545   1.0000   1
1203.105   0.9531   0.2474   1.0000   1
1203.135   0.9413   0.2469   1.0000   1
1203.165   0.9371   0.2462   1.0000   1
1203.195   0.6662   0.2141   1.0000   1
1203.225   0.8935   0.2423   1.0000   1
1203.255   0.8734   0.2381   1.0000   1
1203.285   1.0388   0.2573   1.0000   1
1203.315   1.1482   0.2686   1.0000   1
1203.344   1.0307   0.2568   1.0000   1
1203.374   1.1850   0.2723   1.0000   1
1203.404   0.7548   0.2278   1.0000   1
1203.434   1.0370   0.2585   1.0000   1
1203.464   1.0256   0.2573   1.0000   1
1203.494   1.1316   0.2669   1.0000   1
1203.524   1.0276   0.2574   1.0000   1
1203.554   1.0700   0.2619   1.0000   1
1203.583   1.0877   0.2639   1.0000   1
1203.613   0.9721   0.2527   1.0000   1
1203.643   1.0169   0.2575   1.0000   1
1203.673   0.8640   0.2413   1.0000   1
1203.703   0.9858   0.2537   1.0000   1
1203.733   1.2102   0.2760   1.0000   1
1203.763   1.0632   0.2622   1.0000   1
1203.793   0.9790   0.2535   1.0000   1
1203.823   0.9670   0.2525   1.0000   1
1203.852   0.8459   0.2395   1.0000   1
1203.882   1.1290   0.2698   1.0000   1
1203.912   1.0253   0.2594   1.0000   1
1203.942   1.0287   0.2594   1.0000   1
1203.972   1.0852   0.2660   1.0000   1
1204.002   1.0139   0.2584   1.0000   1
1204.032   0.9863   0.2555   1.0000   1
1204.062   1.1326   0.2711   1.0000   1
1204.092   0.9599   0.2531   1.0000   1
1204.121   1.0775   0.2647   1.0000   1
1204.151   1.0638   0.2641   1.0000   1
1204.181   1.1537   0.2733   1.0000   1
1204.211   0.9931   0.2580   1.0000   1
1204.241   0.8903   0.2453   1.0000   1
1204.271   1.1862   0.2769   1.0000   1
1204.301   0.9226   0.2509   1.0000   1
1204.331   0.8641   0.2434   1.0000   1
1204.361   1.0125   0.2603   1.0000   1
1204.390   0.9528   0.2546   1.0000   1
1204.420   1.2239   0.2818   1.0000   1
1204.450   1.0760   0.2664   1.0000   1
1204.480   1.2100   0.2800   1.0000   1
1204.510   1.0341   0.2627   1.0000   1
1204.540   0.9747   0.2577   1.0000   1
1204.570   1.1688   0.2770   1.0000   1
1204.600   1.1105   0.2720   1.0000   1
1204.629   1.0550   0.2650   1.0000   1
1204.659   0.7968   0.2383   1.0000   1
1204.689   1.0346   0.2645   1.0000   1
1204.719   1.1488   0.2760   1.0000   1
1204.749   1.0310   0.2624   1.0000   1
1204.779   1.0383   0.2657   1.0000   1
1204.809   0.9113   0.2523   1.0000   1
1204.839   1.0113   0.2621   1.0000   1
1204.869   0.9477   0.2557   1.0000   1
1204.898   1.1204   0.2714   1.0000   1
1204.928   1.1101   0.2731   1.0000   1
1204.958   1.0066   0.2626   1.0000   1
1204.988   1.2709   0.2870   1.0000   1
1205.018   1.1792   0.2794   1.0000   1
1205.048   0.9244   0.2552   1.0000   1
1205.078   0.9290   0.2544   1.0000   1
1205.108   0.9275   0.2531   1.0000   1
1205.137   0.7628   0.2368   1.0000   1
1205.167   1.0165   0.2654   1.0000   1
1205.197   1.2549   0.2881   1.0000   1
1205.227   1.1375   0.2759   1.0000   1
1205.257   0.9398   0.2563   1.0000   1
1205.287   0.9582   0.2597   1.0000   1
1205.317   1.1489   0.2793   1.0000   1
1205.347   1.1897   0.2840   1.0000   1
1205.377   1.0299   0.2655   1.0000   1
1205.406   1.1404   0.2791   1.0000   1
1205.436   1.1156   0.2769   1.0000   1
1205.466   1.1050   0.2762   1.0000   1
1205.496   1.1891   0.2850   1.0000   1
1205.526   1.0482   0.2733   1.0000   1
1205.556   0.9906   0.2730   1.0000   1
1205.586   1.0439   0.2777   1.0000   1
1205.616   0.9752   0.2692   0.9999   1
1205.645   1.2270   0.2982   0.9999   1
1205.675   0.8606   0.2562   0.9999   1
1205.705   0.9867   0.2724   0.9999   1
1205.735   1.3183   0.3052   0.9999   1
1205.765   1.2016   0.2959   0.9999   1
1205.795   1.2402   0.2979   0.9999   1
1205.825   1.1507   0.2888   0.9998   1
1205.855   0.9062   0.2641   0.9997   1
1205.885   1.2311   0.2994   0.9995   1
1205.914   1.1978   0.2951   0.9992   1
1205.944   1.3093   0.3052   0.9987   1
1205.974   1.2497   0.2960   0.9980   1
1206.004   1.1180   0.2842   0.9968   1
1206.034   1.1673   0.2880   0.9950   1
1206.064   1.1403   0.2840   0.9924   1
1206.094   1.1595   0.2862   0.9884   1
1206.124   0.9164   0.2575   0.9824   1
1206.154   1.0078   0.2704   0.9728   1
1206.183   0.8415   0.2526   0.9563   1
1206.213   0.7656   0.2438   0.9260   1
1206.243   0.8663   0.2557   0.8696   1
1206.273   0.8134   0.2488   0.7728   1
1206.303   0.7401   0.2395   0.6281   1
1206.333   0.4223   0.1955   0.4553   1
1206.363   0.2278   0.1619   0.2910   1
1206.393   0.1830   0.1501   0.1681   1
1206.422   0.1514   0.1374   0.0962   1
1206.452   0.0647   0.1140   0.0668   1
1206.482   0.0686   0.1216   0.0668   1
1206.512   0.0724   0.1211   0.0898   1
1206.542   0.1170   0.1306   0.1319   1
1206.572   0.1780   0.1445   0.1837   1
1206.602   0.2182   0.1494   0.2291   1
1206.632   0.4269   0.1963   0.2549   1
1206.662   0.2026   0.1508   0.2602   1
1206.691   0.2394   0.1602   0.2524   1
1206.721   0.3598   0.1875   0.2404   1
1206.751   0.1172   0.1355   0.2300   1
1206.781   0.3267   0.1827   0.2242   1
1206.811   0.2406   0.1658   0.2226   1
1206.841   0.1927   0.1533   0.2234   1
1206.871   0.2298   0.1599   0.2218   1
1206.901   0.2347   0.1645   0.2112   1
1206.931   0.1409   0.1436   0.1870   1
1206.960   0.2396   0.1659   0.1537   1
1206.990   0.0796   0.1116   0.1230   1
1207.020   0.1324   0.1344   0.1080   1
1207.050   0.1706   0.1458   0.1186   1
1207.080   0.1326   0.1432   0.1628   1
1207.110   0.1984   0.1586   0.2382   1
1207.140   0.3595   0.1895   0.3280   1
1207.170   0.4444   0.2042   0.4046   1
1207.199   0.4222   0.2018   0.4477   1
1207.229   0.4458   0.2042   0.4575   1
1207.259   0.5683   0.2245   0.4511   1
1207.289   0.4181   0.2019   0.4465   1
1207.319   0.3430   0.1844   0.4557   1
1207.349   0.4629   0.2070   0.4844   1
1207.379   0.6927   0.2380   0.5342   1
1207.409   0.6228   0.2322   0.6022   1
1207.439   0.7098   0.2443   0.6812   1
1207.468   0.7043   0.2422   0.7618   1
1207.498   0.8642   0.2625   0.8352   1
1207.528   0.8644   0.2648   0.8947   1
1207.558   0.8699   0.2630   0.9375   1
1207.588   0.8080   0.2567   0.9656   1
1207.618   1.2088   0.3014   0.9824   1
1207.648   1.1250   0.2941   0.9915   1
1207.678   0.9890   0.2795   0.9962   1
1207.708   1.0627   0.2883   0.9983   1
1207.737   1.0428   0.2868   0.9992   1
1207.767   0.9659   0.2753   0.9996   1
1207.797   0.9433   0.2749   0.9998   1
1207.827   0.9399   0.2729   0.9999   1
1207.857   0.7809   0.2563   0.9999   1
1207.887   0.9535   0.2778   0.9999   1
1207.917   1.0744   0.2900   0.9999   1
1207.947   0.9478   0.2770   0.9999   1
1207.976   0.9474   0.2774   0.9999   1
1208.006   0.9065   0.2732   1.0000   1
1208.036   0.8031   0.2624   1.0000   1
1208.066   1.0218   0.2912   1.0000   1
1208.096   1.0135   0.2905   1.0000   1
1208.126   1.1847   0.3127   1.0000   1
1208.156   0.7798   0.2630   1.0000   1
1208.186   0.9169   0.2811   1.0000   1
1208.216   1.0722   0.3011   1.0000   1
1208.245   0.9383   0.2864   1.0000   1
1208.275   1.0009   0.2941   1.0000   1
1208.305   0.7489   0.2616   1.0000   1
1208.335   0.9851   0.2945   1.0000   1
1208.365   0.8720   0.2781   1.0000   1
1208.395   1.1996   0.3181   1.0000   1
1208.425   1.0402   0.2997   1.0000   1
1208.455   1.0477   0.2987   1.0000   1
1208.484   1.1407   0.3056   1.0000   1
1208.514   0.7767   0.2619   1.0000   1
1208.544   0.8690   0.2735   1.0000   1
1208.574   0.9127   0.2776   1.0000   1
1208.604   1.1804   0.3090   1.0000   1
1208.634   0.8616   0.2735   1.0000   1
1208.664   0.9927   0.2892   1.0000   1
1208.694   0.8805   0.2744   1.0000   1
1208.724   1.1789   0.3074   1.0000   1
1208.753   1.0745   0.2978   1.0000   1
1208.783   0.8923   0.2781   1.0000   1
1208.813   0.9150   0.2815   1.0000   1
1208.843   1.2668   0.3192   1.0000   1
1208.873   1.0780   0.3007   1.0000   1
1208.903   1.1617   0.3097   1.0000   1
1208.933   1.0117   0.2941   1.0000   1
1208.963   0.9656   0.2889   1.0000   1
1208.993   0.6753   0.2494   1.0000   1
1209.022   1.1804   0.3138   1.0000   1
1209.052   1.0137   0.2959   1.0000   1
1209.082   1.0943   0.3030   1.0000   1
1209.112   1.4040   0.3370   1.0000   1
1209.142   1.2579   0.3218   1.0000   1
1209.172   0.9918   0.2939   1.0000   1
1209.202   0.9879   0.2938   1.0000   1
1209.232   1.2259   0.3190   1.0000   1
1209.261   0.9461   0.2885   1.0000   1
1209.291   1.0079   0.2976   1.0000   1
1209.321   1.3141   0.3300   1.0000   1
1209.351   0.9454   0.2909   1.0000   1
1209.381   1.1198   0.3109   1.0000   1
1209.411   0.9962   0.2966   1.0000   1
1209.441   1.1078   0.3086   1.0000   1
1209.471   0.9622   0.2926   1.0000   1
1209.501   1.2224   0.3229   1.0000   1
1209.530   0.9558   0.2937   1.0000   1
1209.560   0.8536   0.2807   1.0000   1
1209.590   0.9219   0.2883   1.0000   1
1209.620   1.0831   0.3092   1.0000   1
1209.650   1.1135   0.3123   1.0000   1
1209.680   1.0318   0.3037   1.0000   1
1209.710   1.0804   0.3079   1.0000   1
1209.740   1.1014   0.3114   1.0000   1
1209.770   0.8945   0.2875   1.0000   1
1209.799   1.0885   0.3110   1.0000   1
1209.829   0.8603   0.2808   1.0000   1
1209.859   0.7108   0.2641   1.0000   1
1209.889   1.0270   0.3056   1.0000   1
1209.919   1.2570   0.3313   1.0000   1
1209.949   0.9588   0.2975   1.0000   1
1209.979   0.9015   0.2899   1.0000   1
1210.009   0.9601   0.2995   1.0000   1
1210.038   1.0612   0.3097   1.0000   1
1210.068   0.9036   0.2925   1.0000   1
1210.098   1.0831   0.3145   1.0000   1
1210.128   0.9636   0.3009   1.0000   1
1210.158   1.0213   0.3084   1.0000   1
1210.188   0.9401   0.2982   1.0000   1
1210.218   0.8402   0.2862   1.0000   1
1210.248   1.0031   0.3071   1.0000   1
1210.278   0.9067   0.2950   1.0000   1
1210.307   0.8937   0.2933   1.0000   1
1210.337   0.9192   0.2981   1.0000   1
1210.367   1.0644   0.3151   1.0000   1
1210.397   0.9344   0.3001   1.0000   1
1210.427   0.8542   0.2870   1.0000   1
1210.457   0.7846   0.2809   1.0000   1
1210.487   0.7660   0.2801   1.0000   1
1210.517   0.9015   0.2847   1.0000   1
