# Best-fit normalized data and profile from VoigtFit
# column 1 : Wavelength
# column 2 : Normalized flux
# column 3 : Normalized error
# column 4 : Best-fit profile
# column 5 : Pixel mask, 1=included, 0=excluded
1543.032   0.6385   0.2197   1.0000   1
1543.069   0.6820   0.2233   1.0000   1
1543.105   0.8491   0.2441   1.0000   1
1543.142   0.8131   0.2410   1.0000   1
1543.179   1.0038   0.2621   1.0000   1
1543.216   0.7750   0.2364   1.0000   1
1543.252   0.9672   0.2582   1.0000   1
1543.289   0.7303   0.2307   1.0000   1
1543.326   0.7858   0.2380   1.0000   1
1543.362   1.1561   0.2773   1.0000   1
1543.399   1.0302   0.2639   1.0000   1
1543.436   0.8830   0.2486   1.0000   1
1543.472   1.0802   0.2695   1.0000   1
1543.509   1.2469   0.2850   1.0000   1
1543.546   1.0229   0.2640   1.0000   1
1543.583   1.0028   0.2610   1.0000   1
1543.619   1.0574   0.2669   1.0000   1
1543.656   1.1829   0.2794   1.0000   1
1543.693   0.9015   0.2509   1.0000   1
1543.729   0.9153   0.2521   1.0000   1
1543.766   1.1830   0.2800   1.0000   1
1543.803   0.9137   0.2520   1.0000   1
1543.840   1.1204   0.2740   1.0000   1
1543.876   0.9970   0.2572   1.0000   1
1543.913   0.9712   0.2583   1.0000   1
1543.950   1.0151   0.2612   1.0000   1
1543.986   1.1233   0.2735   1.0000   1
1544.023   1.3065   0.2897   1.0000   1
1544.060   1.2039   0.2815   1.0000   1
1544.096   0.8145   0.2401   1.0000   1
1544.133   1.0990   0.2707   1.0000   1
1544.170   0.9920   0.2599   1.0000   1
1544.207   1.0994   0.2709   1.0000   1
1544.243   1.1134   0.2720   1.0000   1
1544.280   0.8132   0.2402   1.0000   1
1544.317   1.1597   0.2766   1.0000   1
1544.353   1.0686   0.2679   1.0000   1
1544.390   0.9717   0.2572   1.0000   1
1544.427   1.0363   0.2638   1.0000   1
1544.463   0.8800   0.2476   1.0000   1
1544.500   0.7748   0.2356   1.0000   1
1544.537   1.0001   0.2601   1.0000   1
1544.574   1.1882   0.2780   1.0000   1
1544.610   1.1275   0.2741   1.0000   1
1544.647   1.0217   0.2631   1.0000   1
1544.684   1.0744   0.2680   1.0000   1
1544.720   1.0447   0.2657   1.0000   1
1544.757   0.8873   0.2491   1.0000   1
1544.794   1.0142   0.2615   1.0000   1
1544.831   1.0290   0.2642   1.0000   1
1544.867   0.9928   0.2598   1.0000   1
1544.904   0.9916   0.2604   1.0000   1
1544.941   1.0056   0.2605   1.0000   1
1544.977   1.1741   0.2763   1.0000   1
1545.014   1.0374   0.2645   1.0000   1
1545.051   0.9676   0.2575   1.0000   1
1545.087   1.1654   0.2772   1.0000   1
1545.124   0.9249   0.2530   1.0000   1
1545.161   1.2373   0.2840   1.0000   1
1545.198   1.2172   0.2813   1.0000   1
1545.234   0.9217   0.2525   1.0000   1
1545.271   1.2844   0.2885   1.0000   1
1545.308   1.0652   0.2659   1.0000   1
1545.344   0.8831   0.2464   1.0000   1
1545.381   1.0981   0.2695   1.0000   1
1545.418   0.9778   0.2567   1.0000   1
1545.454   0.9254   0.2532   1.0000   1
1545.491   0.9766   0.2584   1.0000   1
1545.528   1.1310   0.2741   1.0000   1
1545.565   1.1339   0.2744   1.0000   1
1545.601   1.2528   0.2851   1.0000   1
1545.638   1.1560   0.2751   1.0000   1
1545.675   0.9843   0.2589   1.0000   1
1545.711   1.0880   0.2692   1.0000   1
1545.748   0.9640   0.2550   1.0000   1
1545.785   0.9874   0.2580   1.0000   1
1545.822   1.0741   0.2681   1.0000   1
1545.858   1.0699   0.2676   1.0000   1
1545.895   0.8136   0.2400   1.0000   1
1545.932   1.1721   0.2779   1.0000   1
1545.968   1.0976   0.2705   1.0000   1
1546.005   1.1081   0.2720   1.0000   1
1546.042   0.9752   0.2570   1.0000   1
1546.078   0.8851   0.2487   1.0000   1
1546.115   0.9891   0.2634   1.0000   1
1546.152   1.0872   0.2778   1.0000   1
1546.189   1.1370   0.2826   1.0000   1
1546.225   0.9002   0.2568   1.0000   1
1546.262   0.9625   0.2648   1.0000   1
1546.299   1.0010   0.2676   1.0000   1
1546.335   1.2637   0.2945   1.0000   1
1546.372   1.1396   0.2854   1.0000   1
1546.409   1.2207   0.2956   1.0000   1
1546.445   0.7926   0.2455   1.0000   1
1546.482   1.0185   0.2738   1.0000   1
1546.519   0.9707   0.2650   1.0000   1
1546.556   1.1170   0.2784   1.0000   1
1546.592   1.1449   0.2826   1.0000   1
1546.629   1.1511   0.2772   1.0000   1
1546.666   0.9437   0.2544   1.0000   1
1546.702   1.1679   0.2772   1.0000   1
1546.739   0.8769   0.2449   1.0000   1
1546.776   1.0232   0.2622   1.0000   1
1546.812   1.1591   0.2769   1.0000   1
1546.849   1.1806   0.2773   1.0000   1
1546.886   1.2842   0.2870   1.0000   1
1546.923   0.9609   0.2561   1.0000   1
1546.959   0.9889   0.2593   1.0000   1
1546.996   0.9291   0.2518   1.0000   1
1547.033   1.0176   0.2618   1.0000   1
1547.069   1.0510   0.2656   1.0000   1
1547.106   1.0480   0.2654   1.0000   1
1547.143   1.0705   0.2667   1.0000   1
1547.180   1.0143   0.2616   1.0000   1
1547.216   0.9919   0.2597   0.9999   1
1547.253   1.0060   0.2613   0.9999   1
1547.290   1.0963   0.2701   0.9998   1
1547.326   1.0802   0.2674   0.9997   1
1547.363   1.4188   0.2966   0.9995   1
1547.400   0.9395   0.2538   0.9991   1
1547.436   0.7792   0.2353   0.9987   1
1547.473   0.9311   0.2530   0.9979   1
1547.510   0.9834   0.2585   0.9968   1
1547.547   0.9744   0.2576   0.9953   1
1547.583   0.9770   0.2566   0.9932   1
1547.620   0.9396   0.2539   0.9902   1
1547.657   0.8584   0.2453   0.9863   1
1547.693   0.7546   0.2328   0.9811   1
1547.730   0.8441   0.2431   0.9744   1
1547.767   0.9335   0.2507   0.9661   1
1547.803   0.6806   0.2224   0.9558   1
1547.840   0.9436   0.2545   0.9435   1
1547.877   1.1278   0.2732   0.9292   1
1547.914   0.9987   0.2592   0.9130   1
1547.950   0.9437   0.2526   0.8951   1
1547.987   1.0682   0.2666   0.8759   1
1548.024   0.7941   0.2379   0.8559   1
1548.060   0.8285   0.2418   0.8357   1
1548.097   0.9077   0.2507   0.8160   1
1548.134   0.8184   0.2394   0.7976   1
1548.171   0.8377   0.2429   0.7811   1
1548.207   0.8270   0.2406   0.7672   1
1548.244   0.6826   0.2228   0.7564   1
1548.281   0.6740   0.2236   0.7491   1
1548.317   0.8714   0.2465   0.7458   1
1548.354   0.7767   0.2360   0.7464   1
1548.391   0.7709   0.2338   0.7509   1
1548.427   0.6721   0.2224   0.7591   1
1548.464   0.6388   0.2186   0.7707   1
1548.501   0.6834   0.2235   0.7853   1
1548.538   0.7303   0.2303   0.8020   1
1548.574   0.7673   0.2345   0.8201   1
1548.611   0.9492   0.2560   0.8386   1
1548.648   1.0238   0.2679   0.8566   1
1548.684   0.9473   0.2639   0.8727   1
1548.721   1.1667   0.2853   0.8859   1
1548.758   1.0006   0.2717   0.8952   1
1548.794   0.7935   0.2493   0.8995   1
1548.831   0.8795   0.2545   0.8980   1
1548.868   0.8103   0.2465   0.8908   1
1548.905   0.9041   0.2574   0.8781   1
1548.941   0.8816   0.2580   0.8609   1
1548.978   0.7605   0.2433   0.8408   1
1549.015   0.7558   0.2410   0.8198   1
1549.051   0.7873   0.2413   0.8001   1
1549.088   0.7522   0.2392   0.7838   1
1549.125   1.0596   0.2738   0.7724   1
1549.162   0.8382   0.2457   0.7677   1
1549.198   0.7168   0.2291   0.7700   1
1549.235   0.7997   0.2381   0.7792   1
1549.272   0.6785   0.2235   0.7948   1
1549.308   0.8609   0.2430   0.8156   1
1549.345   0.7644   0.2342   0.8399   1
1549.382   0.8800   0.2476   0.8659   1
1549.418   0.9212   0.2519   0.8918   1
1549.455   0.9218   0.2495   0.9159   1
1549.492   0.9207   0.2502   0.9371   1
1549.529   0.8646   0.2431   0.9547   1
1549.565   1.1631   0.2757   0.9686   1
1549.602   1.2303   0.2828   0.9791   1
1549.639   0.9400   0.2533   0.9866   1
1549.675   0.8576   0.2439   0.9917   1
1549.712   1.0847   0.2679   0.9951   1
1549.749   1.0103   0.2605   0.9972   1
1549.785   0.8890   0.2477   0.9984   1
1549.822   0.7645   0.2340   0.9992   1
1549.859   0.9566   0.2545   0.9996   1
1549.896   1.2723   0.2861   0.9998   1
1549.932   0.9917   0.2587   0.9999   1
1549.969   1.0865   0.2665   1.0000   1
1550.006   1.0802   0.2676   1.0000   1
1550.042   1.0746   0.2668   1.0000   1
1550.079   1.1801   0.2774   1.0000   1
1550.116   0.8989   0.2486   1.0000   1
1550.153   0.9903   0.2583   1.0000   1
1550.189   0.9929   0.2588   1.0000   1
1550.226   1.0740   0.2669   1.0000   1
1550.263   1.0998   0.2680   1.0000   1
1550.299   1.1178   0.2708   1.0000   1
1550.336   0.9024   0.2461   1.0000   1
1550.373   0.9615   0.2553   1.0000   1
1550.409   0.9534   0.2536   1.0000   1
1550.446   1.0586   0.2639   1.0000   1
1550.483   0.9962   0.2593   1.0000   1
1550.520   1.2171   0.2798   1.0000   1
1550.556   1.1964   0.2793   1.0000   1
1550.593   1.0451   0.2639   1.0000   1
1550.630   1.0122   0.2607   1.0000   1
1550.666   0.8042   0.2381   1.0000   1
1550.703   1.0173   0.2616   1.0000   1
1550.740   0.9261   0.2517   1.0000   1
1550.777   0.9178   0.2507   1.0000   1
1550.813   0.8517   0.2438   1.0000   1
1550.850   0.8695   0.2448   1.0000   1
1550.887   1.0223   0.2599   1.0000   1
1550.923   0.7965   0.2363   1.0000   1
1550.960   0.9455   0.2509   1.0000   1
1550.997   1.0515   0.2647   1.0000   1
1551.033   1.0009   0.2597   1.0000   1
1551.070   1.1680   0.2764   1.0000   1
1551.107   0.8449   0.2412   1.0000   1
1551.144   0.9388   0.2534   1.0000   1
1551.180   0.8742   0.2452   1.0000   1
1551.217   1.0596   0.2657   1.0000   1
1551.254   0.7478   0.2314   1.0000   1
1551.290   0.8813   0.2470   1.0000   1
1551.327   0.9872   0.2581   1.0000   1
1551.364   0.7781   0.2347   1.0000   1
1551.400   0.7773   0.2336   1.0000   1
1551.437   1.1101   0.2696   1.0000   1
1551.474   0.8073   0.2380   1.0000   1
1551.511   1.0716   0.2666   1.0000   1
1551.547   0.9382   0.2531   1.0000   1
1551.584   0.9894   0.2582   1.0000   1
1551.621   0.6329   0.2170   1.0000   1
1551.657   0.7838   0.2357   1.0000   1
1551.694   0.9510   0.2544   1.0000   1
1551.731   0.9444   0.2538   1.0000   1
1551.768   1.0242   0.2595   1.0000   1
1551.804   0.9756   0.2562   1.0000   1
1551.841   1.1000   0.2697   1.0000   1
1551.878   0.8538   0.2439   1.0000   1
1551.914   1.0152   0.2609   1.0000   1
1551.951   1.2375   0.2828   1.0000   1
1551.988   1.0577   0.2655   1.0000   1
1552.024   1.1005   0.2683   1.0000   1
1552.061   1.0043   0.2599   1.0000   1
1552.098   1.0616   0.2654   1.0000   1
1552.135   1.2314   0.2824   1.0000   1
1552.171   0.9878   0.2594   1.0000   1
1552.208   0.9923   0.2612   1.0000   1
1552.245   0.9305   0.2545   1.0000   1
1552.281   1.1555   0.2769   1.0000   1
1552.318   1.1470   0.2765   1.0000   1
1552.355   1.2876   0.2896   1.0000   1
1552.391   1.1257   0.2724   1.0000   1
1552.428   0.8439   0.2440   1.0000   1
1552.465   1.1829   0.2829   1.0000   1
1552.502   1.0378   0.2670   1.0000   1
1552.538   1.0017   0.2641   1.0000   1
1552.575   0.9720   0.2637   1.0000   1
1552.612   0.9853   0.2655   1.0000   1
1552.648   0.7963   0.2430   1.0000   1
1552.685   1.0350   0.2671   1.0000   1
1552.722   0.8481   0.2469   1.0000   1
1552.759   1.1651   0.2776   1.0000   1
1552.795   0.9987   0.2581   1.0000   1
1552.832   0.9196   0.2495   1.0000   1
1552.869   1.0823   0.2675   1.0000   1
1552.905   1.1702   0.2752   1.0000   1
1552.942   0.9342   0.2509   1.0000   1
1552.979   1.1254   0.2685   1.0000   1
1553.015   0.9580   0.2546   1.0000   1
1553.052   1.0500   0.2622   1.0000   1
1553.089   1.1351   0.2718   1.0000   1
1553.126   1.1423   0.2725   1.0000   1
1553.162   1.2027   0.2773   1.0000   1
1553.199   1.1316   0.2716   1.0000   1
1553.236   1.0721   0.2654   1.0000   1
1553.272   0.9721   0.2562   1.0000   1
1553.309   1.0287   0.2619   1.0000   1
1553.346   0.9270   0.2514   1.0000   1
