# Best-fit normalized data and profile from VoigtFit
# column 1 : Wavelength
# column 2 : Normalized flux
# column 3 : Normalized error
# column 4 : Best-fit profile
# column 5 : Pixel mask, 1=included, 0=excluded
1543.032   0.6403   0.2203   1.0000   1
1543.069   0.6840   0.2240   1.0000   1
1543.105   0.8515   0.2448   1.0000   1
1543.142   0.8153   0.2417   1.0000   1
1543.179   1.0066   0.2628   1.0000   1
1543.216   0.7772   0.2370   1.0000   1
1543.252   0.9699   0.2589   1.0000   1
1543.289   0.7324   0.2313   1.0000   1
1543.326   0.7880   0.2386   1.0000   1
1543.362   1.1593   0.2781   1.0000   1
1543.399   1.0330   0.2646   1.0000   1
1543.436   0.8855   0.2493   1.0000   1
1543.472   1.0832   0.2702   1.0000   1
1543.509   1.2503   0.2858   1.0000   1
1543.546   1.0257   0.2647   1.0000   1
1543.583   1.0056   0.2618   1.0000   1
1543.619   1.0603   0.2676   1.0000   1
1543.656   1.1861   0.2801   1.0000   1
1543.693   0.9039   0.2516   1.0000   1
1543.729   0.9178   0.2528   1.0000   1
1543.766   1.1862   0.2807   1.0000   1
1543.803   0.9161   0.2526   1.0000   1
1543.840   1.1234   0.2747   1.0000   1
1543.876   0.9996   0.2578   1.0000   1
1543.913   0.9738   0.2590   1.0000   1
1543.950   1.0178   0.2619   1.0000   1
1543.986   1.1262   0.2742   1.0000   1
1544.023   1.3100   0.2905   1.0000   1
1544.060   1.2071   0.2823   1.0000   1
1544.096   0.8167   0.2407   1.0000   1
1544.133   1.1019   0.2714   1.0000   1
1544.170   0.9946   0.2606   1.0000   1
1544.207   1.1023   0.2716   1.0000   1
1544.243   1.1163   0.2727   1.0000   1
1544.280   0.8154   0.2408   1.0000   1
1544.317   1.1627   0.2773   1.0000   1
1544.353   1.0713   0.2686   1.0000   1
1544.390   0.9742   0.2578   1.0000   1
1544.427   1.0390   0.2645   1.0000   1
1544.463   0.8823   0.2483   1.0000   1
1544.500   0.7768   0.2362   1.0000   1
1544.537   1.0027   0.2608   1.0000   1
1544.574   1.1913   0.2787   1.0000   1
1544.610   1.1304   0.2748   1.0000   1
1544.647   1.0243   0.2638   1.0000   1
1544.684   1.0771   0.2687   1.0000   1
1544.720   1.0473   0.2664   1.0000   1
1544.757   0.8895   0.2498   1.0000   1
1544.794   1.0167   0.2622   1.0000   1
1544.831   1.0315   0.2649   1.0000   1
1544.867   0.9953   0.2604   1.0000   1
1544.904   0.9941   0.2611   1.0000   1
1544.941   1.0081   0.2612   1.0000   1
1544.977   1.1770   0.2770   1.0000   1
1545.014   1.0400   0.2652   1.0000   1
1545.051   0.9700   0.2582   1.0000   1
1545.087   1.1683   0.2778   1.0000   1
1545.124   0.9272   0.2536   1.0000   1
1545.161   1.2403   0.2847   1.0000   1
1545.198   1.2203   0.2820   1.0000   1
1545.234   0.9240   0.2531   1.0000   1
1545.271   1.2876   0.2892   1.0000   1
1545.308   1.0678   0.2666   1.0000   1
1545.344   0.8853   0.2470   1.0000   1
1545.381   1.1008   0.2702   1.0000   1
1545.418   0.9801   0.2573   1.0000   1
1545.454   0.9276   0.2538   1.0000   1
1545.491   0.9790   0.2591   1.0000   1
1545.528   1.1338   0.2747   1.0000   1
1545.565   1.1366   0.2751   1.0000   1
1545.601   1.2559   0.2858   1.0000   1
1545.638   1.1588   0.2757   1.0000   1
1545.675   0.9867   0.2595   1.0000   1
1545.711   1.0907   0.2699   1.0000   1
1545.748   0.9663   0.2556   1.0000   1
1545.785   0.9898   0.2586   1.0000   1
1545.822   1.0767   0.2687   1.0000   1
1545.858   1.0724   0.2683   1.0000   1
1545.895   0.8156   0.2406   1.0000   1
1545.932   1.1749   0.2785   1.0000   1
1545.968   1.1002   0.2712   1.0000   1
1546.005   1.1108   0.2727   1.0000   1
1546.042   0.9776   0.2576   1.0000   1
1546.078   0.8872   0.2493   1.0000   1
1546.115   0.9914   0.2640   1.0000   1
1546.152   1.0898   0.2784   1.0000   1
1546.189   1.1397   0.2833   1.0000   1
1546.225   0.9024   0.2574   1.0000   1
1546.262   0.9648   0.2654   1.0000   1
1546.299   1.0034   0.2682   1.0000   1
1546.335   1.2667   0.2952   1.0000   1
1546.372   1.1423   0.2860   1.0000   1
1546.409   1.2236   0.2963   1.0000   1
1546.445   0.7945   0.2460   1.0000   1
1546.482   1.0209   0.2744   1.0000   1
1546.519   0.9730   0.2657   1.0000   1
1546.556   1.1197   0.2790   1.0000   1
1546.592   1.1476   0.2833   1.0000   1
1546.629   1.1538   0.2779   1.0000   1
1546.666   0.9459   0.2550   1.0000   1
1546.702   1.1707   0.2778   1.0000   1
1546.739   0.8789   0.2454   1.0000   1
1546.776   1.0256   0.2628   1.0000   1
1546.812   1.1619   0.2775   1.0000   1
1546.849   1.1834   0.2780   1.0000   1
1546.886   1.2872   0.2876   1.0000   1
1546.923   0.9631   0.2567   1.0000   1
1546.959   0.9912   0.2599   1.0000   1
1546.996   0.9312   0.2524   1.0000   1
1547.033   1.0200   0.2624   1.0000   1
1547.069   1.0535   0.2663   1.0000   1
1547.106   1.0505   0.2660   1.0000   1
1547.143   1.0731   0.2673   1.0000   1
1547.180   1.0167   0.2622   1.0000   1
1547.216   0.9943   0.2603   1.0000   1
1547.253   1.0083   0.2619   1.0000   1
1547.290   1.0989   0.2708   1.0000   1
1547.326   1.0828   0.2680   1.0000   1
1547.363   1.4221   0.2973   1.0000   1
1547.400   0.9417   0.2544   1.0000   1
1547.436   0.7810   0.2358   1.0000   1
1547.473   0.9333   0.2536   1.0000   1
1547.510   0.9857   0.2591   1.0000   1
1547.547   0.9767   0.2582   0.9999   1
1547.583   0.9793   0.2572   0.9998   1
1547.620   0.9418   0.2545   0.9997   1
1547.657   0.8604   0.2459   0.9994   1
1547.693   0.7564   0.2333   0.9988   1
1547.730   0.8461   0.2436   0.9978   1
1547.767   0.9357   0.2513   0.9962   1
1547.803   0.6822   0.2229   0.9934   1
1547.840   0.9458   0.2551   0.9890   1
1547.877   1.1305   0.2738   0.9825   1
1547.914   1.0011   0.2598   0.9730   1
1547.950   0.9459   0.2532   0.9600   1
1547.987   1.0707   0.2672   0.9426   1
1548.024   0.7960   0.2385   0.9208   1
1548.060   0.8304   0.2423   0.8948   1
1548.097   0.9098   0.2513   0.8653   1
1548.134   0.8203   0.2400   0.8336   1
1548.171   0.8397   0.2434   0.8017   1
1548.207   0.8289   0.2412   0.7715   1
1548.244   0.6842   0.2234   0.7453   1
1548.281   0.6756   0.2241   0.7248   1
1548.317   0.8735   0.2471   0.7119   1
1548.354   0.7785   0.2366   0.7072   1
1548.391   0.7728   0.2344   0.7109   1
1548.427   0.6737   0.2230   0.7230   1
1548.464   0.6403   0.2191   0.7425   1
1548.501   0.6850   0.2240   0.7682   1
1548.538   0.7321   0.2308   0.7980   1
1548.574   0.7691   0.2351   0.8298   1
1548.611   0.9515   0.2566   0.8614   1
1548.648   1.0262   0.2686   0.8906   1
1548.684   0.9495   0.2645   0.9150   1
1548.721   1.1694   0.2860   0.9322   1
1548.758   1.0030   0.2724   0.9388   1
1548.794   0.7954   0.2499   0.9316   1
1548.831   0.8816   0.2551   0.9083   1
1548.868   0.8123   0.2471   0.8723   1
1548.905   0.9063   0.2580   0.8320   1
1548.941   0.8837   0.2586   0.7989   1
1548.978   0.7623   0.2439   0.7839   1
1549.015   0.7576   0.2416   0.7907   1
1549.051   0.7892   0.2418   0.8131   1
1549.088   0.7540   0.2398   0.8373   1
1549.125   1.0622   0.2745   0.8472   1
1549.162   0.8402   0.2463   0.8328   1
1549.198   0.7185   0.2297   0.8002   1
1549.235   0.8016   0.2387   0.7662   1
1549.272   0.6801   0.2241   0.7494   1
1549.308   0.8630   0.2436   0.7612   1
1549.345   0.7663   0.2348   0.8005   1
1549.382   0.8821   0.2482   0.8548   1
1549.418   0.9234   0.2525   0.9087   1
1549.455   0.9241   0.2501   0.9510   1
1549.492   0.9230   0.2508   0.9774   1
1549.529   0.8667   0.2437   0.9910   1
1549.565   1.1659   0.2763   0.9969   1
1549.602   1.2334   0.2835   0.9991   1
1549.639   0.9423   0.2539   0.9998   1
1549.675   0.8597   0.2445   0.9999   1
1549.712   1.0873   0.2686   1.0000   1
1549.749   1.0128   0.2612   1.0000   1
1549.785   0.8912   0.2483   1.0000   1
1549.822   0.7664   0.2346   1.0000   1
1549.859   0.9590   0.2551   1.0000   1
1549.896   1.2754   0.2868   1.0000   1
1549.932   0.9941   0.2594   1.0000   1
1549.969   1.0892   0.2672   1.0000   1
1550.006   1.0829   0.2682   1.0000   1
1550.042   1.0773   0.2675   1.0000   1
1550.079   1.1830   0.2781   1.0000   1
1550.116   0.9011   0.2493   1.0000   1
1550.153   0.9927   0.2589   1.0000   1
1550.189   0.9954   0.2594   1.0000   1
1550.226   1.0767   0.2676   1.0000   1
1550.263   1.1026   0.2687   1.0000   1
1550.299   1.1206   0.2715   1.0000   1
1550.336   0.9047   0.2468   1.0000   1
1550.373   0.9639   0.2559   1.0000   1
1550.409   0.9558   0.2543   1.0000   1
1550.446   1.0613   0.2645   1.0000   1
1550.483   0.9988   0.2600   1.0000   1
1550.520   1.2202   0.2805   1.0000   1
1550.556   1.1995   0.2800   1.0000   1
1550.593   1.0478   0.2646   1.0000   1
1550.630   1.0148   0.2614   1.0000   1
1550.666   0.8062   0.2388   1.0000   1
1550.703   1.0199   0.2622   1.0000   1
1550.740   0.9285   0.2524   1.0000   1
1550.777   0.9202   0.2513   1.0000   1
1550.813   0.8539   0.2445   1.0000   1
1550.850   0.8718   0.2454   1.0000   1
1550.887   1.0250   0.2606   1.0000   1
1550.923   0.7986   0.2369   1.0000   1
1550.960   0.9480   0.2516   1.0000   1
1550.997   1.0543   0.2654   1.0000   1
1551.033   1.0035   0.2604   1.0000   1
1551.070   1.1711   0.2771   1.0000   1
1551.107   0.8471   0.2418   1.0000   1
1551.144   0.9413   0.2541   1.0000   1
1551.180   0.8765   0.2458   1.0000   1
1551.217   1.0624   0.2664   1.0000   1
1551.254   0.7498   0.2320   1.0000   1
1551.290   0.8837   0.2477   1.0000   1
1551.327   0.9898   0.2588   1.0000   1
1551.364   0.7802   0.2353   1.0000   1
1551.400   0.7794   0.2342   1.0000   1
1551.437   1.1131   0.2703   1.0000   1
1551.474   0.8094   0.2387   1.0000   1
1551.511   1.0745   0.2674   1.0000   1
1551.547   0.9408   0.2538   1.0000   1
1551.584   0.9921   0.2589   1.0000   1
1551.621   0.6346   0.2176   1.0000   1
1551.657   0.7860   0.2363   1.0000   1
1551.694   0.9536   0.2551   1.0000   1
1551.731   0.9470   0.2545   1.0000   1
1551.768   1.0270   0.2602   1.0000   1
1551.804   0.9783   0.2569   1.0000   1
1551.841   1.1031   0.2704   1.0000   1
1551.878   0.8562   0.2445   1.0000   1
1551.914   1.0180   0.2617   1.0000   1
1551.951   1.2410   0.2836   1.0000   1
1551.988   1.0607   0.2663   1.0000   1
1552.024   1.1036   0.2691   1.0000   1
1552.061   1.0071   0.2606   1.0000   1
1552.098   1.0646   0.2661   1.0000   1
1552.135   1.2349   0.2832   1.0000   1
1552.171   0.9906   0.2601   1.0000   1
1552.208   0.9951   0.2619   1.0000   1
1552.245   0.9331   0.2552   1.0000   1
1552.281   1.1588   0.2777   1.0000   1
1552.318   1.1503   0.2773   1.0000   1
1552.355   1.2914   0.2904   1.0000   1
1552.391   1.1290   0.2732   1.0000   1
1552.428   0.8464   0.2447   1.0000   1
1552.465   1.1863   0.2838   1.0000   1
1552.502   1.0409   0.2678   1.0000   1
1552.538   1.0046   0.2648   1.0000   1
1552.575   0.9749   0.2645   1.0000   1
1552.612   0.9882   0.2662   1.0000   1
1552.648   0.7987   0.2437   1.0000   1
1552.685   1.0380   0.2679   1.0000   1
1552.722   0.8507   0.2476   1.0000   1
1552.759   1.1686   0.2784   1.0000   1
1552.795   1.0017   0.2589   1.0000   1
1552.832   0.9224   0.2502   1.0000   1
1552.869   1.0856   0.2683   1.0000   1
1552.905   1.1737   0.2760   1.0000   1
1552.942   0.9370   0.2517   1.0000   1
1552.979   1.1288   0.2693   1.0000   1
1553.015   0.9609   0.2554   1.0000   1
1553.052   1.0532   0.2630   1.0000   1
1553.089   1.1386   0.2726   1.0000   1
1553.126   1.1458   0.2733   1.0000   1
1553.162   1.2064   0.2781   1.0000   1
1553.199   1.1351   0.2725   1.0000   1
1553.236   1.0754   0.2662   1.0000   1
1553.272   0.9752   0.2570   1.0000   1
1553.309   1.0319   0.2627   1.0000   1
1553.346   0.9299   0.2522   1.0000   1
