# Best-fit normalized data and profile from VoigtFit
# column 1 : Wavelength
# column 2 : Normalized flux
# column 3 : Normalized error
# column 4 : Best-fit profile
# column 5 : Pixel mask, 1=included, 0=excluded
1184.480   0.6061   0.1941   1.0000   1
1184.510   0.6129   0.1880   1.0000   1
1184.540   0.5774   0.1903   1.0000   1
1184.570   0.5536   0.1851   1.0000   1
1184.600   0.5726   0.1848   1.0000   1
1184.630   0.7034   0.2068   1.0000   1
1184.660   0.9357   0.2316   1.0000   1
1184.689   0.7914   0.2142   1.0000   1
1184.719   0.8427   0.2155   1.0000   1
1184.749   0.9545   0.2341   1.0000   1
1184.779   0.9159   0.2308   1.0000   1
1184.809   0.9630   0.2334   1.0000   1
1184.839   0.8396   0.2219   1.0000   1
1184.869   0.8783   0.2258   1.0000   1
1184.899   0.9970   0.2391   1.0000   1
1184.928   0.9262   0.2294   1.0000   1
1184.958   0.8981   0.2280   1.0000   1
1184.988   0.9076   0.2240   1.0000   1
1185.018   0.8810   0.2241   1.0000   1
1185.048   0.8890   0.2226   1.0000   1
1185.078   0.9335   0.2309   1.0000   1
1185.108   0.7838   0.2147   1.0000   1
1185.138   0.9237   0.2337   1.0000   1
1185.168   1.0133   0.2404   1.0000   1
1185.197   1.1512   0.2560   1.0000   1
1185.227   0.9830   0.2384   1.0000   1
1185.257   1.0229   0.2433   1.0000   1
1185.287   0.8069   0.2200   1.0000   1
1185.317   0.9251   0.2299   1.0000   1
1185.347   0.9597   0.2360   1.0000   1
1185.377   0.9282   0.2283   1.0000   1
1185.407   1.0624   0.2401   1.0000   1
1185.436   1.0174   0.2408   1.0000   1
1185.466   1.0251   0.2428   1.0000   1
1185.496   0.9727   0.2388   1.0000   1
1185.526   1.0261   0.2421   1.0000   1
1185.556   1.1385   0.2514   1.0000   1
1185.586   1.0316   0.2436   1.0000   1
1185.616   0.9105   0.2266   1.0000   1
1185.646   0.8430   0.2191   1.0000   1
1185.676   1.0429   0.2398   1.0000   1
1185.705   0.9649   0.2368   1.0000   1
1185.735   0.9078   0.2280   1.0000   1
1185.765   1.0893   0.2443   1.0000   1
1185.795   0.9638   0.2339   1.0000   1
1185.825   1.2906   0.2662   1.0000   1
1185.855   0.9806   0.2386   1.0000   1
1185.885   0.9750   0.2365   1.0000   1
1185.915   0.7552   0.2162   1.0000   1
1185.944   0.8557   0.2288   1.0000   1
1185.974   1.1996   0.2608   1.0000   1
1186.004   0.8971   0.2267   1.0000   1
1186.034   1.0365   0.2451   1.0000   1
1186.064   0.9060   0.2340   1.0000   1
1186.094   0.9237   0.2357   1.0000   1
1186.124   0.8150   0.2179   1.0000   1
1186.154   0.9041   0.2311   1.0000   1
1186.183   1.1066   0.2543   1.0000   1
1186.213   1.0341   0.2451   1.0000   1
1186.243   1.1144   0.2507   1.0000   1
1186.273   1.0823   0.2451   1.0000   1
1186.303   0.7981   0.2185   1.0000   1
1186.333   1.1080   0.2501   1.0000   1
1186.363   0.9650   0.2322   1.0000   1
1186.393   0.8925   0.2269   1.0000   1
1186.423   0.9100   0.2286   1.0000   1
1186.452   1.0873   0.2445   1.0000   1
1186.482   1.2427   0.2633   1.0000   1
1186.512   0.8066   0.2141   1.0000   1
1186.542   1.0242   0.2403   1.0000   1
1186.572   1.1198   0.2511   1.0000   1
1186.602   1.1487   0.2544   1.0000   1
1186.632   0.9282   0.2281   1.0000   1
1186.662   1.0743   0.2469   1.0000   1
1186.691   1.0913   0.2487   1.0000   1
1186.721   0.9577   0.2359   1.0000   1
1186.751   1.0658   0.2437   1.0000   1
1186.781   0.9489   0.2348   1.0000   1
1186.811   0.9711   0.2385   1.0000   1
1186.841   0.9988   0.2380   1.0000   1
1186.871   1.1175   0.2517   1.0000   1
1186.901   1.1945   0.2570   1.0000   1
1186.930   1.0839   0.2467   1.0000   1
1186.960   1.1081   0.2456   1.0000   1
1186.990   0.9454   0.2269   1.0000   1
1187.020   1.1452   0.2533   1.0000   1
1187.050   1.0818   0.2462   1.0000   1
1187.080   1.3280   0.2704   1.0000   1
1187.110   1.2353   0.2579   1.0000   1
1187.140   1.0820   0.2486   1.0000   1
1187.170   1.2528   0.2620   1.0000   1
1187.199   1.0606   0.2446   1.0000   1
1187.229   1.0667   0.2473   1.0000   1
1187.259   0.9981   0.2415   1.0000   1
1187.289   0.8682   0.2244   1.0000   1
1187.319   1.0092   0.2411   1.0000   1
1187.349   0.9092   0.2266   1.0000   1
1187.379   0.8956   0.2270   1.0000   1
1187.409   1.4901   0.2830   1.0000   1
1187.438   0.9350   0.2324   1.0000   1
1187.468   1.0405   0.2460   1.0000   1
1187.498   0.9687   0.2340   1.0000   1
1187.528   1.0893   0.2469   1.0000   1
1187.558   1.0869   0.2483   1.0000   1
1187.588   0.9688   0.2386   1.0000   1
1187.618   0.9037   0.2289   1.0000   1
1187.648   1.0704   0.2424   1.0000   1
1187.678   1.0756   0.2488   1.0000   1
1187.707   1.0909   0.2473   1.0000   1
1187.737   1.0812   0.2494   1.0000   1
1187.767   0.9039   0.2294   1.0000   1
1187.797   1.1474   0.2545   1.0000   1
1187.827   1.0618   0.2471   1.0000   1
1187.857   0.9563   0.2373   1.0000   1
1187.887   0.9838   0.2401   1.0000   1
1187.917   1.2034   0.2613   1.0000   1
1187.946   1.3517   0.2677   1.0000   1
1187.976   1.1567   0.2477   1.0000   1
1188.006   0.8111   0.2204   1.0000   1
1188.036   0.9839   0.2357   1.0000   1
1188.066   1.2840   0.2656   1.0000   1
1188.096   0.9184   0.2280   1.0000   1
1188.126   0.9060   0.2301   1.0000   1
1188.156   1.0666   0.2468   1.0000   1
1188.185   1.0429   0.2443   1.0000   1
1188.215   0.8878   0.2258   1.0000   1
1188.245   1.1092   0.2521   1.0000   1
1188.275   1.1127   0.2529   1.0000   1
1188.305   1.0523   0.2447   1.0000   1
1188.335   0.8086   0.2213   1.0000   1
1188.365   1.0546   0.2466   1.0000   1
1188.395   1.0741   0.2405   1.0000   1
1188.425   1.0437   0.2406   1.0000   1
1188.454   1.4119   0.2766   1.0000   1
1188.484   1.2580   0.2651   1.0000   1
1188.514   1.0034   0.2386   1.0000   1
1188.544   1.1853   0.2610   1.0000   1
1188.574   1.2522   0.2672   1.0000   1
1188.604   1.0232   0.2463   1.0000   1
1188.634   1.1180   0.2541   1.0000   1
1188.664   1.1116   7.9450   1.0000   1
1188.693   0.9833   0.2393   1.0000   1
1188.723   1.2126   0.2625   1.0000   1
1188.753   0.9729   0.2426   1.0000   1
1188.783   1.0152   0.2467   1.0000   1
1188.813   1.1100   0.2575   1.0000   1
1188.843   0.9787   0.2406   1.0000   1
1188.873   1.0499   0.2501   1.0000   1
1188.903   1.0969   0.2529   1.0000   1
1188.932   1.0519   0.2463   1.0000   1
1188.962   1.2747   0.2669   1.0000   1
1188.992   1.3277   0.2694   1.0000   1
1189.022   1.1048   0.2514   1.0000   1
1189.052   1.2158   0.2602   1.0000   1
1189.082   1.1385   0.2516   1.0000   1
1189.112   1.2382   0.2652   1.0000   1
1189.142   1.1810   0.2576   1.0000   1
1189.172   1.2539   0.2644   1.0000   1
1189.201   1.1866   0.2578   1.0000   1
1189.231   0.8841   0.2236   1.0000   1
1189.261   1.1800   0.2574   1.0000   1
1189.291   1.1388   0.2565   1.0000   1
1189.321   1.1754   0.2600   1.0000   1
1189.351   0.9628   0.2409   1.0000   1
1189.381   1.0017   0.2397   1.0000   1
1189.411   1.0823   0.2544   0.9999   1
1189.440   1.0723   0.2518   0.9999   1
1189.470   1.0786   0.2502   0.9999   1
1189.500   0.9466   0.2382   0.9999   1
1189.530   1.1312   0.2545   0.9999   1
1189.560   1.1229   0.2496   0.9999   1
1189.590   1.1330   0.2558   0.9999   1
1189.620   1.0542   0.2464   0.9998   1
1189.650   1.1606   0.2550   0.9997   1
1189.679   1.2086   0.2569   0.9995   1
1189.709   1.0045   0.2417   0.9990   1
1189.739   0.7751   0.2191   0.9979   1
1189.769   1.0307   0.2437   0.9957   1
1189.799   0.9496   0.2356   0.9916   1
1189.829   1.0515   0.2436   0.9840   1
1189.859   1.1143   0.2478   0.9708   1
1189.889   1.0025   0.2404   0.9492   1
1189.919   0.9495   0.2303   0.9159   1
1189.948   1.1630   0.2584   0.8678   1
1189.978   0.7397   0.2114   0.8030   1
1190.008   0.9543   0.2382   0.7221   1
1190.038   0.8005   0.2229   0.6291   1
1190.068   0.8542   0.2251   0.5307   1
1190.098   0.6270   0.1941   0.4354   1
1190.128   0.6232   0.1990   0.3504   1
1190.158   0.5288   0.1885   0.2809   1
1190.187   0.4411   0.1725   0.2289   1
1190.217   0.4009   0.1722   0.1940   1
1190.247   0.2124   0.1346   0.1748   1
1190.277   0.1707   0.1254   0.1701   1
1190.307   0.1691   0.1231   0.1795   1
1190.337   0.0645   0.0981   0.2037   1
1190.367   0.1050   0.1064   0.2442   1
1190.397   0.1916   0.1295   0.3021   1
1190.427   0.1732   0.1209   0.3771   1
1190.456   0.3128   0.1509   0.4662   1
1190.486   0.4925   0.1823   0.5634   1
1190.516   0.7557   0.2082   0.6609   1
1190.546   0.8170   0.2190   0.7505   1
1190.576   0.7758   0.2208   0.8263   1
1190.606   1.2404   0.2664   0.8855   1
1190.636   1.0124   0.2445   0.9284   1
1190.666   0.9832   0.2401   0.9575   1
1190.695   0.9313   0.2361   0.9759   1
1190.725   1.0229   0.2386   0.9870   1
1190.755   1.4104   0.2806   0.9932   1
1190.785   1.0592   0.2503   0.9966   1
1190.815   1.1912   0.2632   0.9983   1
1190.845   1.0146   0.2457   0.9992   1
1190.875   0.9919   0.2427   0.9996   1
1190.905   0.9858   0.2432   0.9998   1
1190.934   1.0470   0.2485   0.9999   1
1190.964   1.1300   0.2597   0.9999   1
1190.994   1.2926   0.2720   0.9999   1
1191.024   1.0944   0.2537   0.9999   1
1191.054   1.1484   0.2587   0.9999   1
1191.084   1.1230   0.2547   0.9999   1
1191.114   0.9824   0.2413   0.9999   1
1191.144   1.0824   0.2525   0.9999   1
1191.174   1.2479   0.2672   0.9999   1
1191.203   0.9950   0.2420   0.9999   1
1191.233   1.2007   0.2560   0.9999   1
1191.263   1.1616   0.2569   0.9999   1
1191.293   1.1294   0.2531   0.9999   1
1191.323   0.9845   0.2407   0.9999   1
1191.353   1.2311   0.2656   0.9999   1
1191.383   0.9806   0.2375   0.9999   1
1191.413   1.1750   0.2568   0.9999   1
1191.442   0.9750   0.2360   1.0000   1
1191.472   1.2084   0.2602   1.0000   1
1191.502   1.0491   0.2471   1.0000   1
1191.532   1.1907   0.2598   1.0000   1
1191.562   1.0428   0.2449   1.0000   1
1191.592   1.2750   0.2671   1.0000   1
1191.622   0.9653   0.2367   1.0000   1
1191.652   0.9679   0.2340   1.0000   1
1191.681   1.2082   0.2587   0.9999   1
1191.711   1.1308   0.2578   0.9999   1
1191.741   1.1370   0.2544   0.9999   1
1191.771   0.9418   0.2348   0.9999   1
1191.801   1.0826   0.2508   0.9999   1
1191.831   1.3626   0.2784   0.9999   1
1191.861   1.1414   0.2553   0.9999   1
1191.891   1.0378   0.2469   0.9999   1
1191.921   1.2512   0.2657   0.9999   1
1191.950   1.1548   0.2571   0.9999   1
1191.980   1.3583   0.2773   0.9999   1
1192.010   1.2905   0.2651   0.9999   1
1192.040   1.0535   0.2511   0.9999   1
1192.070   1.1303   0.2569   0.9999   1
1192.100   1.2253   0.2687   0.9999   1
1192.130   1.0816   0.2557   0.9999   1
1192.160   1.1600   0.2601   0.9999   1
1192.189   1.0863   0.2539   0.9999   1
1192.219   0.9830   0.2423   0.9999   1
1192.249   0.9329   0.2417   0.9999   1
1192.279   0.8323   0.2301   0.9999   1
1192.309   0.9622   0.2430   0.9999   1
1192.339   1.0532   0.2460   0.9999   1
1192.369   1.0964   0.2475   0.9999   1
1192.399   1.4057   0.2807   0.9998   1
1192.429   1.0868   0.2546   0.9998   1
1192.458   1.0003   0.2426   0.9998   1
1192.488   0.9008   0.2331   0.9997   1
1192.518   1.0857   0.2517   0.9995   1
1192.548   1.1489   0.2569   0.9990   1
1192.578   1.0333   0.2467   0.9980   1
1192.608   1.1669   0.2589   0.9960   1
1192.638   1.2049   0.2640   0.9918   1
1192.668   0.9956   0.2370   0.9839   1
1192.697   1.0040   0.2432   0.9694   1
1192.727   1.0828   0.2509   0.9446   1
1192.757   0.8835   0.2324   0.9045   1
1192.787   0.6389   0.2039   0.8444   1
1192.817   0.5544   0.1915   0.7608   1
1192.847   0.4179   0.1740   0.6552   1
1192.877   0.2408   0.1401   0.5336   1
1192.907   0.2595   0.1455   0.4083   1
1192.937   0.2446   0.1406   0.2929   1
1192.966   0.3599   0.1622   0.1975   1
1192.996   0.1799   0.1246   0.1272   1
1193.026   0.2170   0.1354   0.0799   1
1193.056   0.1261   0.1175   0.0512   1
1193.086   0.0892   0.1064   0.0348   1
1193.116   0.0277   0.0863   0.0269   1
1193.146   0.0652   0.0993   0.0244   1
1193.176   0.0468   0.0962   0.0268   1
1193.205   0.0656   0.0998   0.0348   1
1193.235   0.0324   0.0916   0.0511   1
1193.265   0.0501   0.0941   0.0797   1
1193.295   0.1332   0.1169   0.1271   1
1193.325   0.2365   0.1311   0.1971   1
1193.355   0.3956   0.1673   0.2926   1
1193.385   0.6361   0.2049   0.4078   1
1193.415   0.7276   0.2065   0.5331   1
1193.444   0.8778   0.2334   0.6547   1
1193.474   1.0654   0.2520   0.7603   1
1193.504   0.9196   0.2351   0.8442   1
1193.534   0.9947   0.2406   0.9042   1
1193.564   1.0591   0.2523   0.9446   1
1193.594   1.0081   0.2489   0.9693   1
1193.624   0.8729   0.2319   0.9839   1
1193.654   1.0179   0.2487   0.9918   1
1193.684   1.0823   0.2558   0.9960   1
1193.713   1.0033   0.2414   0.9980   1
1193.743   0.9696   0.2426   0.9990   1
1193.773   0.9861   0.2438   0.9995   1
1193.803   1.0191   0.2472   0.9997   1
1193.833   1.1354   0.2583   0.9998   1
1193.863   1.0551   0.2449   0.9998   1
1193.893   1.0666   0.2531   0.9999   1
1193.923   0.9168   0.2401   0.9999   1
1193.952   1.0217   0.2479   0.9999   1
1193.982   0.9558   0.2367   0.9999   1
1194.012   0.9161   0.2291   0.9999   1
1194.042   1.1341   0.2603   0.9999   1
1194.072   1.2784   0.2692   0.9999   1
1194.102   0.9739   0.2364   0.9999   1
1194.132   1.2340   0.2677   0.9999   1
1194.162   0.8778   0.2315   0.9999   1
1194.191   0.9996   0.2482   0.9999   1
1194.221   1.0584   0.2556   0.9999   1
1194.251   1.1992   0.2682   0.9999   1
1194.281   1.2743   0.2776   0.9999   1
1194.311   1.1674   0.2674   0.9999   1
1194.341   1.1970   0.2687   0.9999   1
1194.371   0.7634   0.2217   0.9999   1
1194.401   1.1387   0.2645   1.0000   1
1194.431   0.9280   0.2448   1.0000   1
1194.460   1.3520   0.2851   1.0000   1
1194.490   1.2418   0.2760   1.0000   1
1194.520   1.1053   0.2584   1.0000   1
1194.550   1.0918   0.2545   1.0000   1
1194.580   1.1345   0.2624   1.0000   1
1194.610   1.1942   0.2673   1.0000   1
1194.640   1.0308   0.2538   1.0000   1
1194.670   1.1359   0.2602   1.0000   1
1194.699   1.0219   0.2493   1.0000   1
1194.729   0.9695   0.2468   1.0000   1
1194.759   1.0092   0.2492   1.0000   1
1194.789   0.9094   0.2341   1.0000   1
1194.819   0.7338   0.2157   1.0000   1
1194.849   0.6111   0.2039   1.0000   1
1194.879   0.5921   0.2000   1.0000   1
1194.909   0.6017   0.1949   1.0000   1
1194.938   0.5827   0.1965   1.0000   1
1194.968   0.4857   0.1851   1.0000   1
1194.998   0.4045   0.1714   1.0000   1
1195.028   0.2522   0.1421   1.0000   1
1195.058   0.3056   0.1537   1.0000   1
1195.088   0.3560   0.1560   1.0000   1
1195.118   0.5168   0.1721   1.0000   1
1195.148   0.6758   0.2091   1.0000   1
1195.178   0.9067   0.2368   1.0000   1
1195.207   1.0154   0.2478   1.0000   1
1195.237   1.2448   0.2681   1.0000   1
1195.267   1.1012   0.2495   1.0000   1
1195.297   1.2603   0.2672   1.0000   1
1195.327   1.1271   0.2610   1.0000   1
1195.357   1.0869   0.2570   1.0000   1
1195.387   1.3813   0.2811   1.0000   1
1195.417   1.3225   0.2787   1.0000   1
1195.446   1.1212   0.2586   1.0000   1
1195.476   0.9415   0.2373   1.0000   1
1195.506   1.2357   0.2686   1.0000   1
1195.536   1.1725   0.2631   1.0000   1
1195.566   0.9955   0.2418   1.0000   1
1195.596   1.2091   0.2585   1.0000   1
1195.626   0.9537   0.2429   1.0000   1
1195.656   1.0118   0.2475   1.0000   1
1195.686   0.9397   0.2409   1.0000   1
1195.715   1.1458   0.2564   1.0000   1
1195.745   1.2873   0.2743   1.0000   1
1195.775   0.9408   0.2382   1.0000   1
1195.805   1.0284   0.2504   1.0000   1
1195.835   1.0961   0.2558   1.0000   1
1195.865   1.1273   0.2601   1.0000   1
1195.895   1.0822   0.2557   1.0000   1
1195.925   1.1742   0.2649   1.0000   1
1195.954   1.3601   0.2817   1.0000   1
1195.984   0.9837   0.2440   1.0000   1
1196.014   0.9747   0.2400   1.0000   1
1196.044   0.9684   0.2435   1.0000   1
1196.074   0.9985   0.2486   1.0000   1
1196.104   1.1037   0.2586   1.0000   1
1196.134   1.0527   0.2534   1.0000   1
1196.164   1.0718   0.2562   1.0000   1
1196.193   1.2224   0.2700   1.0000   1
1196.223   1.1319   0.2625   1.0000   1
1196.253   1.1055   0.2608   1.0000   1
1196.283   1.0361   0.2541   1.0000   1
1196.313   1.1782   0.2611   1.0000   1
1196.343   1.0315   0.2471   1.0000   1
1196.373   1.2610   0.2731   1.0000   1
1196.403   1.0730   0.2500   1.0000   1
1196.433   1.0686   0.2559   1.0000   1
1196.462   0.9688   0.2465   1.0000   1
1196.492   1.0984   0.2558   1.0000   1
1196.522   1.1914   0.2689   1.0000   1
1196.552   1.1030   0.2606   1.0000   1
1196.582   0.9529   0.2455   1.0000   1
1196.612   1.2048   0.2678   1.0000   1
1196.642   1.0837   0.2561   1.0000   1
1196.672   0.9847   0.2421   1.0000   1
1196.701   0.9350   0.2364   1.0000   1
1196.731   0.9850   0.2469   1.0000   1
1196.761   1.1907   0.2681   1.0000   1
1196.791   1.0920   0.2598   1.0000   1
1196.821   1.1609   0.2634   1.0000   1
1196.851   1.3125   0.2793   1.0000   1
1196.881   1.1164   0.2610   1.0000   1
1196.911   1.0847   0.2581   1.0000   1
1196.940   1.1607   0.2659   1.0000   1
1196.970   1.2445   0.2718   1.0000   1
1197.000   1.2028   0.2693   1.0000   1
1197.030   1.2212   0.2748   1.0000   1
1197.060   0.9345   0.2461   1.0000   1
1197.090   1.0496   0.2582   1.0000   1
1197.120   1.0224   0.2568   1.0000   1
1197.150   0.9600   0.2461   1.0000   1
1197.180   0.9543   0.2454   1.0000   1
1197.209   1.0240   0.2548   1.0000   1
1197.239   0.9886   0.2411   1.0000   1
1197.269   0.9883   0.2489   1.0000   1
1197.299   1.1345   0.2677   1.0000   1
1197.329   0.9855   0.2445   1.0000   1
1197.359   1.4304   0.2904   1.0000   1
1197.389   1.1410   0.2634   1.0000   1
1197.419   1.1661   0.2616   1.0000   1
1197.448   1.0999   0.2567   1.0000   1
1197.478   0.8005   0.2250   1.0000   1
1197.508   1.1625   0.2675   1.0000   1
1197.538   1.1235   0.2595   1.0000   1
1197.568   0.8983   0.2390   1.0000   1
1197.598   0.9627   0.2473   1.0000   1
1197.628   0.8720   0.2350   1.0000   1
1197.658   0.9894   0.2495   1.0000   1
1197.688   0.7641   0.2219   1.0000   1
1197.717   1.1552   0.2662   1.0000   1
1197.747   1.1336   0.2554   1.0000   1
1197.777   0.9420   0.2469   1.0000   1
1197.807   0.9358   0.2490   1.0000   1
1197.837   1.0017   0.2519   1.0000   1
1197.867   1.0030   0.2493   1.0000   1
1197.897   1.1061   0.2655   1.0000   1
1197.927   1.0037   0.3596   1.0000   1
1197.956   1.2896   0.2818   1.0000   1
1197.986   0.8985   0.2408   1.0000   1
1198.016   0.9390   0.2405   1.0000   1
1198.046   0.9953   0.2540   1.0000   1
1198.076   1.0457   0.2581   1.0000   1
1198.106   0.8847   0.2405   1.0000   1
1198.136   0.8919   0.2383   1.0000   1
1198.166   1.0132   0.2502   1.0000   1
1198.195   1.0582   0.2551   1.0000   1
1198.225   1.0749   0.2584   1.0000   1
1198.255   1.1429   0.2648   1.0000   1
1198.285   1.0485   0.2535   1.0000   1
1198.315   1.0171   0.2537   1.0000   1
1198.345   0.8649   0.2349   1.0000   1
1198.375   0.8752   0.2382   1.0000   1
1198.405   0.6082   0.2043   1.0000   1
1198.435   0.7540   0.2155   1.0000   1
1198.464   0.6417   0.2116   1.0000   1
1198.494   0.7184   0.2197   1.0000   1
1198.524   0.8843   0.2392   1.0000   1
1198.554   0.8187   0.2290   1.0000   1
1198.584   0.5099   0.1871   1.0000   1
1198.614   0.6137   0.2031   1.0000   1
1198.644   0.6223   0.2012   1.0000   1
1198.674   0.7120   0.2220   1.0000   1
1198.703   1.1924   0.2698   1.0000   1
1198.733   0.9875   0.2485   1.0000   1
1198.763   1.1766   0.2673   1.0000   1
1198.793   1.0256   0.2511   1.0000   1
1198.823   0.7912   0.2198   1.0000   1
1198.853   1.0988   0.2574   1.0000   1
1198.883   1.1361   0.2607   1.0000   1
1198.913   1.0618   0.2557   1.0000   1
1198.943   1.0125   0.2526   1.0000   1
1198.972   1.0402   0.2524   1.0000   1
1199.002   1.1378   0.2649   1.0000   1
1199.032   1.0929   0.2546   1.0000   1
1199.062   1.0443   0.2504   1.0000   1
1199.092   1.0436   0.2541   1.0000   1
1199.122   1.3377   0.2811   1.0000   1
1199.152   1.4550   0.2960   1.0000   1
1199.182   1.4241   0.2958   1.0000   1
1199.211   1.4722   0.2960   1.0000   1
1199.241   1.4181   0.2925   1.0000   1
