# Best-fit normalized data and profile from VoigtFit
# column 1 : Wavelength
# column 2 : Normalized flux
# column 3 : Normalized error
# column 4 : Best-fit profile
# column 5 : Pixel mask, 1=included, 0=excluded
1200.466   1.0085   0.2485   1.0000   1
1200.496   1.2195   0.2620   1.0000   1
1200.526   0.8819   0.2359   1.0000   1
1200.556   0.7759   0.2207   1.0000   1
1200.586   0.7021   0.2162   1.0000   1
1200.616   0.4489   0.1825   1.0000   1
1200.646   0.3692   0.1672   1.0000   1
1200.676   0.1855   0.1314   1.0000   1
1200.705   0.1876   0.1284   1.0000   1
1200.735   0.3040   0.1522   1.0000   1
1200.765   0.3941   0.1733   1.0000   1
1200.795   0.5448   0.1996   1.0000   1
1200.825   0.7501   0.2223   1.0000   1
1200.855   0.9292   0.2415   1.0000   1
1200.885   0.8716   0.2334   1.0000   1
1200.915   0.8635   0.2312   1.0000   1
1200.944   0.9394   0.2417   1.0000   1
1200.974   0.8931   0.2343   1.0000   1
1201.004   1.1172   0.2548   1.0000   1
1201.034   0.9591   0.2427   1.0000   1
1201.064   0.9204   0.2409   1.0000   1
1201.094   0.8194   0.2299   1.0000   1
1201.124   1.1320   0.2628   1.0000   1
1201.154   0.9306   0.2430   1.0000   1
1201.184   0.8489   0.2280   1.0000   1
1201.213   0.9933   0.2430   1.0000   1
1201.243   0.9505   0.2476   1.0000   1
1201.273   1.1553   0.2651   1.0000   1
1201.303   1.1354   0.2613   1.0000   1
1201.333   0.9170   0.2394   1.0000   1
1201.363   1.0942   0.2561   1.0000   1
1201.393   0.9953   0.2458   1.0000   1
1201.423   1.0948   0.2589   1.0000   1
1201.452   1.0026   0.2523   1.0000   1
1201.482   1.1320   0.2646   1.0000   1
1201.512   1.3941   0.2866   1.0000   1
1201.542   1.2902   0.2767   1.0000   1
1201.572   1.2403   0.2721   1.0000   1
1201.602   0.9832   0.2480   1.0000   1
1201.632   1.1265   0.2632   1.0000   1
1201.662   1.1995   0.2723   1.0000   1
1201.692   0.9835   0.2482   1.0000   1
1201.721   1.1516   0.2671   1.0000   1
1201.751   1.0725   0.2519   1.0000   1
1201.781   1.0868   0.2578   1.0000   1
1201.811   1.3241   0.2799   1.0000   1
1201.841   1.0160   0.2500   1.0000   1
1201.871   1.0927   0.2612   1.0000   1
1201.901   1.0401   0.2566   1.0000   1
1201.931   1.3598   0.2862   1.0000   1
1201.960   1.1697   0.2664   1.0000   1
1201.990   1.0901   0.2601   1.0000   1
1202.020   1.0423   0.2578   1.0000   1
1202.050   1.1153   0.2654   1.0000   1
1202.080   0.9793   0.2488   1.0000   1
1202.110   1.3222   0.2765   1.0000   1
1202.140   1.0749   0.2591   1.0000   1
1202.170   1.1288   0.2655   1.0000   1
1202.199   1.1947   0.2673   1.0000   1
1202.229   1.5333   0.3029   1.0000   1
1202.259   1.3479   0.2871   1.0000   1
1202.289   1.1619   0.2655   1.0000   1
1202.319   1.2569   0.2785   1.0000   1
1202.349   1.2778   0.2804   1.0000   1
1202.379   1.4971   0.2992   1.0000   1
1202.409   1.0263   0.2552   1.0000   1
1202.439   0.9498   0.2468   1.0000   1
1202.468   1.0421   0.2519   1.0000   1
1202.498   1.2317   0.2733   1.0000   1
1202.528   1.0372   0.2536   1.0000   1
1202.558   1.1569   0.2721   1.0000   1
1202.588   1.2498   0.2790   1.0000   1
1202.618   1.1742   0.2750   1.0000   1
1202.648   1.2385   0.2819   1.0000   1
1202.678   1.2746   0.2859   1.0000   1
1202.707   1.1322   0.2732   1.0000   1
1202.737   0.9615   0.2522   1.0000   1
1202.767   1.2582   0.2829   1.0000   1
1202.797   1.1129   0.2723   1.0000   1
1202.827   1.0556   0.2662   1.0000   1
1202.857   1.1093   0.2706   1.0000   1
1202.887   1.1417   0.2700   1.0000   1
1202.917   0.9484   0.2543   1.0000   1
1202.947   1.0462   0.2646   1.0000   1
1202.976   0.9021   0.2493   1.0000   1
1203.006   0.9230   0.2507   1.0000   1
1203.036   1.2451   0.2809   1.0000   1
1203.066   1.0700   0.2630   1.0000   1
1203.096   1.1785   0.2775   1.0000   1
1203.126   1.2027   0.2765   1.0000   1
1203.156   0.9760   0.2565   1.0000   1
1203.186   1.0775   0.2660   1.0000   1
1203.215   1.0039   0.2539   1.0000   1
1203.245   0.9251   0.2440   1.0000   1
1203.275   0.9721   0.2531   1.0000   1
1203.305   1.2823   0.2801   1.0000   1
1203.335   0.9687   0.2523   1.0000   1
1203.365   0.9900   0.2533   1.0000   1
1203.395   0.9581   0.2519   1.0000   1
1203.425   1.0389   0.2610   1.0000   1
1203.454   1.0467   0.2574   1.0000   1
1203.484   1.0497   0.2615   1.0000   1
1203.514   1.0728   0.2660   1.0000   1
1203.544   1.0947   0.2645   1.0000   1
1203.574   1.3313   0.2874   1.0000   1
1203.604   1.0439   0.2624   1.0000   1
1203.634   1.2449   0.2806   1.0000   1
1203.664   1.3532   0.2916   1.0000   1
1203.694   1.2827   0.2841   1.0000   1
1203.723   1.0437   0.2586   1.0000   1
1203.753   1.0885   0.2644   1.0000   1
1203.783   1.1424   0.2737   1.0000   1
1203.813   1.1899   0.2713   1.0000   1
1203.843   1.2780   0.2853   1.0000   1
1203.873   1.1704   0.2757   1.0000   1
1203.903   1.1732   0.2733   1.0000   1
1203.933   1.3553   0.2930   1.0000   1
1203.962   1.1112   0.2682   1.0000   1
1203.992   1.0797   0.2658   1.0000   1
1204.022   0.9516   0.2535   1.0000   1
1204.052   1.1255   0.2711   1.0000   1
1204.082   1.0870   0.2670   1.0000   1
1204.112   1.3968   0.2959   1.0000   1
1204.142   1.0024   0.2605   1.0000   1
1204.172   1.2444   0.2807   1.0000   1
1204.201   1.2080   0.2771   1.0000   1
1204.231   1.3722   0.2943   1.0000   1
1204.261   1.1788   0.2776   1.0000   1
1204.291   1.0579   0.2643   1.0000   1
1204.321   1.2805   0.2859   1.0000   1
1204.351   1.3465   0.2884   1.0000   1
1204.381   0.9890   0.2540   1.0000   1
1204.411   1.2292   0.2819   1.0000   1
1204.441   1.0526   0.2650   1.0000   1
1204.470   1.2279   0.2776   1.0000   1
1204.500   1.0747   0.2677   1.0000   1
1204.530   0.9903   0.2609   1.0000   1
1204.560   1.2951   0.2871   1.0000   1
1204.590   1.1918   0.2803   1.0000   1
1204.620   1.1360   0.2713   1.0000   1
1204.650   1.4183   0.3007   1.0000   1
1204.680   1.1336   0.2736   1.0000   1
1204.709   1.0086   0.2610   1.0000   1
1204.739   0.9785   0.2581   1.0000   1
1204.769   1.0623   0.2663   1.0000   1
1204.799   1.1231   0.2684   1.0000   1
1204.829   0.9679   0.2566   1.0000   1
1204.859   1.1616   0.2773   1.0000   1
1204.889   1.2049   0.2811   1.0000   1
1204.919   1.0057   0.2613   1.0000   1
1204.948   1.4152   0.2977   1.0000   1
1204.978   1.1092   0.2725   1.0000   1
1205.008   1.0580   0.2643   1.0000   1
1205.038   1.0885   0.2730   1.0000   1
1205.068   1.1253   0.2679   1.0000   1
1205.098   1.2364   0.2869   0.9999   1
1205.128   1.1775   0.2800   0.9999   1
1205.158   1.0903   0.2677   0.9999   1
1205.188   1.1258   0.2622   0.9999   1
1205.217   1.0819   0.2700   0.9999   1
1205.247   0.8711   0.2487   0.9998   1
1205.277   0.9899   0.2615   0.9989   1
1205.307   0.8070   0.2325   0.9930   1
1205.337   1.1045   0.2710   0.9683   1
1205.367   0.9737   0.2564   0.9002   1
1205.397   0.6818   0.2286   0.7745   1
1205.427   0.7105   0.2270   0.6374   1
1205.456   0.5102   0.2064   0.5749   1
1205.486   0.7118   0.2284   0.6313   1
1205.516   0.7166   0.2354   0.7657   1
1205.546   0.9406   0.2597   0.8929   1
1205.576   0.8379   0.2513   0.9660   1
1205.606   1.1570   0.2820   0.9917   1
1205.636   1.0575   0.2736   0.9935   1
1205.666   0.9323   0.2570   0.9601   1
1205.696   0.9856   0.2641   0.8562   1
1205.725   0.6355   0.2219   0.7676   1
1205.755   1.0560   0.2723   0.8363   1
1205.785   0.8082   0.2456   0.9468   1
1205.815   0.9582   0.2573   0.9882   1
1205.845   0.9367   0.2612   0.9903   1
1205.875   1.1518   0.2816   0.9828   1
1205.905   1.3053   0.2975   0.9685   1
1205.935   1.0469   0.2734   0.9451   1
1205.964   1.0171   0.2631   0.9079   1
1205.994   0.8353   0.2440   0.8530   1
1206.024   0.7010   0.2300   0.7780   1
1206.054   0.5979   0.2127   0.6817   1
1206.084   0.5297   0.2060   0.5701   1
1206.114   0.5357   0.2071   0.4513   1
1206.144   0.3868   0.1846   0.3373   1
1206.174   0.3158   0.1612   0.2378   1
1206.203   0.1001   0.1191   0.1602   1
1206.233   0.0696   0.1151   0.1040   1
1206.263   0.0348   0.1091   0.0673   1
1206.293   0.0558   0.1181   0.0448   1
1206.323   0.0451   0.1112   0.0320   1
1206.353   0.0652   0.1141   0.0258   1
1206.383   0.0014   0.0974   0.0241   1
1206.413   0.0565   0.1143   0.0267   1
1206.443   0.1196   0.1266   0.0340   1
1206.472   0.1529   0.1351   0.0485   1
1206.502   0.0389   0.1123   0.0737   1
1206.532   0.0679   0.1153   0.1138   1
1206.562   0.1341   0.1304   0.1747   1
1206.592   0.3817   0.1784   0.2572   1
1206.622   0.4140   0.1833   0.3603   1
1206.652   0.3829   0.1754   0.4763   1
1206.682   0.6446   0.2279   0.5945   1
1206.711   0.5910   0.2140   0.7034   1
1206.741   0.9798   0.2684   0.7954   1
1206.771   0.7886   0.2427   0.8663   1
1206.801   0.9917   0.2652   0.9170   1
1206.831   0.8569   0.2475   0.9511   1
1206.861   0.9681   0.2671   0.9722   1
1206.891   1.1829   0.2906   0.9850   1
1206.921   1.1793   0.2900   0.9921   1
1206.950   1.0774   0.2769   0.9960   1
1206.980   0.9420   0.2563   0.9980   1
1207.010   1.0476   0.2723   0.9990   1
1207.040   1.1835   0.2902   0.9995   1
1207.070   1.0469   0.2766   0.9997   1
1207.100   1.0422   0.2769   0.9998   1
1207.130   1.2965   0.2996   0.9999   1
1207.160   0.8166   0.2464   0.9999   1
1207.190   1.0865   0.2811   0.9999   1
1207.219   1.3910   0.3087   0.9999   1
1207.249   1.1156   0.2793   0.9999   1
1207.279   1.0331   0.2699   0.9999   1
1207.309   1.3847   0.3072   0.9999   1
1207.339   1.2041   0.2931   0.9999   1
1207.369   1.1528   0.2886   0.9999   1
1207.399   1.2731   0.3000   1.0000   1
1207.429   1.1576   0.2838   1.0000   1
1207.458   1.1409   0.2870   1.0000   1
1207.488   0.8813   0.2573   1.0000   1
1207.518   1.4149   0.3138   1.0000   1
1207.548   1.2971   0.2971   1.0000   1
1207.578   0.9903   0.2732   1.0000   1
1207.608   1.1895   0.2875   1.0000   1
1207.638   0.9403   0.2679   1.0000   1
1207.668   1.1150   0.2886   1.0000   1
1207.698   0.9544   0.2626   1.0000   1
1207.727   1.4158   0.3199   1.0000   1
1207.757   1.2234   0.3002   1.0000   1
1207.787   0.9578   0.2693   1.0000   1
1207.817   1.5698   0.3312   1.0000   1
1207.847   1.3041   0.3051   1.0000   1
1207.877   1.1088   0.2863   1.0000   1
1207.907   1.0835   0.2856   1.0000   1
1207.937   0.8906   0.2667   1.0000   1
1207.966   1.1157   0.2916   1.0000   1
1207.996   1.1725   0.2944   1.0000   1
1208.026   1.3299   0.3104   1.0000   1
1208.056   1.1725   0.2920   1.0000   1
1208.086   1.3070   0.3047   1.0000   1
1208.116   1.3939   0.3124   1.0000   1
1208.146   0.9169   0.2637   1.0000   1
1208.176   0.8688   0.2620   1.0000   1
1208.206   1.0943   0.2811   1.0000   1
1208.235   1.2012   0.2973   1.0000   1
1208.265   1.2293   0.2961   1.0000   1
1208.295   1.0898   0.2860   1.0000   1
1208.325   1.1846   0.2953   1.0000   1
1208.355   1.2581   0.3041   1.0000   1
1208.385   1.1477   0.2874   1.0000   1
1208.415   1.2678   0.3022   1.0000   1
1208.445   1.2391   0.3000   1.0000   1
1208.474   0.9506   0.2678   1.0000   1
1208.504   1.2107   0.2992   1.0000   1
1208.534   0.9697   0.2774   1.0000   1
1208.564   1.2293   0.2973   1.0000   1
1208.594   1.1170   0.2901   1.0000   1
1208.624   1.0895   0.2843   1.0000   1
1208.654   1.3073   0.3098   1.0000   1
1208.684   1.1262   0.2915   1.0000   1
1208.713   1.4030   0.3191   1.0000   1
1208.743   1.2145   0.3007   1.0000   1
1208.773   1.1379   0.2960   1.0000   1
1208.803   1.2369   0.3024   1.0000   1
1208.833   1.1986   0.3027   1.0000   1
1208.863   1.1238   0.2969   1.0000   1
1208.893   1.0818   0.2871   1.0000   1
1208.923   0.9945   0.2833   1.0000   1
1208.953   1.1376   0.2923   1.0000   1
1208.982   1.2633   0.3100   1.0000   1
1209.012   1.0926   0.2940   1.0000   1
1209.042   1.1740   0.2999   1.0000   1
1209.072   1.0127   0.2833   1.0000   1
1209.102   1.3783   0.3149   1.0000   1
1209.132   0.9846   0.2773   1.0000   1
1209.162   1.2279   0.3027   1.0000   1
1209.192   1.2503   0.3082   1.0000   1
1209.221   1.1987   0.3050   1.0000   1
1209.251   1.1779   0.3032   1.0000   1
1209.281   1.1498   0.2953   1.0000   1
1209.311   0.8554   0.2477   1.0000   1
1209.341   1.0113   0.2763   1.0000   1
1209.371   0.7379   0.2549   1.0000   1
1209.401   0.8495   0.2666   1.0000   1
1209.431   0.8618   0.2607   1.0000   1
1209.460   1.0034   0.2807   1.0000   1
1209.490   1.1878   0.2929   1.0000   1
1209.520   1.0540   0.2896   1.0000   1
1209.550   0.9984   0.2764   1.0000   1
1209.580   1.2361   0.3038   1.0000   1
1209.610   1.1775   0.3026   1.0000   1
1209.640   1.4378   0.3275   1.0000   1
1209.670   1.1629   0.3006   1.0000   1
1209.700   1.0165   0.2837   1.0000   1
1209.729   1.2032   0.3045   1.0000   1
1209.759   1.2019   0.3038   1.0000   1
1209.789   1.3692   0.3262   1.0000   1
1209.819   1.0753   0.2924   1.0000   1
1209.849   1.1949   0.3048   1.0000   1
1209.879   1.0466   0.2914   1.0000   1
1209.909   1.2546   0.3134   1.0000   1
1209.939   1.3754   0.3254   1.0000   1
1209.968   1.1644   0.3046   1.0000   1
1209.998   1.1827   0.3023   1.0000   1
1210.028   1.4707   0.3334   1.0000   1
1210.058   0.9593   0.2817   1.0000   1
1210.088   1.0826   0.2943   1.0000   1
1210.118   1.1950   0.3074   1.0000   1
1210.148   0.8045   0.2603   1.0000   1
1210.178   1.0932   0.2980   1.0000   1
1210.207   1.0449   0.2903   1.0000   1
1210.237   1.2993   0.3163   1.0000   1
1210.267   1.1933   0.3086   1.0000   1
1210.297   1.1266   0.3020   1.0000   1
1210.327   0.9966   0.2879   1.0000   1
1210.357   1.0756   0.3000   1.0000   1
1210.387   1.0403   0.2961   1.0000   1
1210.417   1.1130   0.2991   1.0000   1
1210.447   0.8628   0.2596   1.0000   1
1210.476   1.0423   0.2901   1.0000   1
1210.506   0.9668   0.2904   1.0000   1
1210.536   0.8226   0.2713   1.0000   1
1210.566   1.0789   0.2976   1.0000   1
1210.596   0.8711   0.2747   1.0000   1
1210.626   0.9800   0.2831   1.0000   1
1210.656   0.9437   0.2829   1.0000   1
1210.686   1.0519   0.2984   1.0000   1
1210.715   0.8311   0.2607   1.0000   1
1210.745   1.1198   0.2997   1.0000   1
1210.775   1.0562   0.2968   1.0000   1
1210.805   0.9110   0.2764   1.0000   1
1210.835   0.9537   0.2849   1.0000   1
1210.865   1.1842   0.3093   1.0000   1
1210.895   0.9713   0.2850   1.0000   1
1210.925   0.9318   0.2793   1.0000   1
1210.955   1.0291   0.2961   1.0000   1
1210.984   0.9082   0.2855   1.0000   1
1211.014   0.7104   0.2517   1.0000   1
1211.044   0.9037   0.2829   1.0000   1
1211.074   0.7966   0.2666   1.0000   1
1211.104   0.7567   0.2620   1.0000   1
1211.134   0.7991   0.2590   1.0000   1
1211.164   0.9901   0.2947   1.0000   1
1211.194   0.9996   0.2962   1.0000   1
1211.223   0.7420   0.2605   1.0000   1
1211.253   0.9820   0.2908   1.0000   1
1211.283   1.1051   0.3151   1.0000   1
1211.313   1.0245   0.2954   1.0000   1
1211.343   1.0469   0.3080   1.0000   1
1211.373   0.9063   0.2849   1.0000   1
1211.403   1.1417   0.3066   1.0000   1
1211.433   0.6687   0.2526   1.0000   1
1211.462   0.7739   0.2703   1.0000   1
1211.492   0.9595   0.2936   1.0000   1
1211.522   0.7892   0.2676   1.0000   1
1211.552   0.7221   0.2617   1.0000   1
1211.582   0.7331   0.2660   1.0000   1
1211.612   0.7543   0.2601   1.0000   1
1211.642   0.7942   0.2740   1.0000   1
1211.672   0.9869   0.2862   1.0000   1
1211.702   0.8222   0.2763   1.0000   1
1211.731   0.8181   0.2699   1.0000   1
1211.761   0.9264   0.2878   1.0000   1
1211.791   0.8412   0.2848   1.0000   1
1211.821   0.7961   0.2675   1.0000   1
1211.851   0.7521   0.2632   1.0000   1
1211.881   0.7553   0.2619   1.0000   1
1211.911   0.5901   0.2422   1.0000   1
1211.941   0.9299   0.2865   1.0000   1
1211.970   0.8767   0.2875   1.0000   1
1212.000   0.5040   0.2288   1.0000   1
1212.030   0.8605   0.2853   1.0000   1
1212.060   0.6369   0.2546   1.0000   1
1212.090   0.5784   0.2452   1.0000   1
1212.120   0.5895   0.2489   1.0000   1
1212.150   0.7731   0.2689   1.0000   1
1212.180   0.8492   0.2721   1.0000   1
1212.209   0.6588   0.2597   1.0000   1
1212.239   0.8467   0.2815   1.0000   1
1212.269   0.7724   0.2789   1.0000   1
1212.299   0.7548   0.2735   1.0000   1
1212.329   0.6133   0.2564   1.0000   1
1212.359   0.5635   0.2491   1.0000   1
1212.389   0.6498   0.2564   1.0000   1
1212.419   0.6378   0.2614   1.0000   1
1212.449   0.4493   0.2267   1.0000   1
1212.478   0.5236   0.2405   1.0000   1
1212.508   0.5214   0.2449   1.0000   1
