# Best-fit normalized data and profile from VoigtFit
# column 1 : Wavelength
# column 2 : Normalized flux
# column 3 : Normalized error
# column 4 : Best-fit profile
# column 5 : Pixel mask, 1=included, 0=excluded
1184.480   0.6142   0.1967   1.0000   1
1184.510   0.6210   0.1905   1.0000   1
1184.540   0.5848   0.1927   1.0000   1
1184.570   0.5606   0.1874   1.0000   1
1184.600   0.5797   0.1871   1.0000   1
1184.630   0.7120   0.2093   1.0000   1
1184.660   0.9469   0.2343   1.0000   1
1184.689   0.8006   0.2167   1.0000   1
1184.719   0.8524   0.2180   1.0000   1
1184.749   0.9653   0.2367   1.0000   1
1184.779   0.9260   0.2333   1.0000   1
1184.809   0.9734   0.2359   1.0000   1
1184.839   0.8485   0.2242   1.0000   1
1184.869   0.8874   0.2281   1.0000   1
1184.899   1.0071   0.2415   1.0000   1
1184.928   0.9354   0.2317   1.0000   1
1184.958   0.9068   0.2302   1.0000   1
1184.988   0.9162   0.2261   1.0000   1
1185.018   0.8891   0.2262   1.0000   1
1185.048   0.8970   0.2246   1.0000   1
1185.078   0.9416   0.2330   1.0000   1
1185.108   0.7905   0.2165   1.0000   1
1185.138   0.9313   0.2356   1.0000   1
1185.168   1.0214   0.2423   1.0000   1
1185.197   1.1602   0.2580   1.0000   1
1185.227   0.9905   0.2402   1.0000   1
1185.257   1.0305   0.2451   1.0000   1
1185.287   0.8127   0.2216   1.0000   1
1185.317   0.9315   0.2315   1.0000   1
1185.347   0.9661   0.2376   1.0000   1
1185.377   0.9342   0.2297   1.0000   1
1185.407   1.0691   0.2416   1.0000   1
1185.436   1.0235   0.2423   1.0000   1
1185.466   1.0311   0.2442   1.0000   1
1185.496   0.9782   0.2402   1.0000   1
1185.526   1.0316   0.2434   1.0000   1
1185.556   1.1444   0.2527   1.0000   1
1185.586   1.0366   0.2448   1.0000   1
1185.616   0.9148   0.2277   1.0000   1
1185.646   0.8468   0.2201   1.0000   1
1185.676   1.0473   0.2409   1.0000   1
1185.705   0.9688   0.2377   1.0000   1
1185.735   0.9113   0.2289   1.0000   1
1185.765   1.0932   0.2452   1.0000   1
1185.795   0.9670   0.2347   1.0000   1
1185.825   1.2947   0.2671   1.0000   1
1185.855   0.9835   0.2393   1.0000   1
1185.885   0.9777   0.2372   1.0000   1
1185.915   0.7570   0.2168   1.0000   1
1185.944   0.8577   0.2293   1.0000   1
1185.974   1.2021   0.2613   1.0000   1
1186.004   0.8988   0.2272   1.0000   1
1186.034   1.0382   0.2455   1.0000   1
1186.064   0.9072   0.2343   1.0000   1
1186.094   0.9248   0.2360   1.0000   1
1186.124   0.8158   0.2181   1.0000   1
1186.154   0.9048   0.2313   1.0000   1
1186.183   1.1072   0.2545   1.0000   1
1186.213   1.0344   0.2452   1.0000   1
1186.243   1.1146   0.2507   1.0000   1
1186.273   1.0822   0.2450   1.0000   1
1186.303   0.7979   0.2185   1.0000   1
1186.333   1.1075   0.2500   1.0000   1
1186.363   0.9643   0.2321   1.0000   1
1186.393   0.8917   0.2267   1.0000   1
1186.423   0.9089   0.2284   1.0000   1
1186.452   1.0859   0.2442   1.0000   1
1186.482   1.2407   0.2629   1.0000   1
1186.512   0.8052   0.2138   1.0000   1
1186.542   1.0221   0.2399   1.0000   1
1186.572   1.1173   0.2505   1.0000   1
1186.602   1.1459   0.2538   1.0000   1
1186.632   0.9258   0.2275   1.0000   1
1186.662   1.0712   0.2462   1.0000   1
1186.691   1.0880   0.2479   1.0000   1
1186.721   0.9546   0.2351   1.0000   1
1186.751   1.0622   0.2429   1.0000   1
1186.781   0.9455   0.2340   1.0000   1
1186.811   0.9673   0.2376   1.0000   1
1186.841   0.9947   0.2370   1.0000   1
1186.871   1.1127   0.2506   1.0000   1
1186.901   1.1892   0.2558   1.0000   1
1186.930   1.0788   0.2456   1.0000   1
1186.960   1.1027   0.2444   1.0000   1
1186.990   0.9406   0.2257   1.0000   1
1187.020   1.1392   0.2519   1.0000   1
1187.050   1.0758   0.2449   1.0000   1
1187.080   1.3205   0.2689   1.0000   1
1187.110   1.2281   0.2563   1.0000   1
1187.140   1.0755   0.2470   1.0000   1
1187.170   1.2449   0.2604   1.0000   1
1187.199   1.0538   0.2430   1.0000   1
1187.229   1.0596   0.2456   1.0000   1
1187.259   0.9912   0.2399   1.0000   1
1187.289   0.8620   0.2228   1.0000   1
1187.319   1.0019   0.2394   1.0000   1
1187.349   0.9024   0.2249   1.0000   1
1187.379   0.8887   0.2252   1.0000   1
1187.409   1.4783   0.2808   1.0000   1
1187.438   0.9275   0.2306   1.0000   1
1187.468   1.0319   0.2439   1.0000   1
1187.498   0.9605   0.2320   1.0000   1
1187.528   1.0799   0.2447   1.0000   1
1187.558   1.0773   0.2461   1.0000   1
1187.588   0.9600   0.2364   1.0000   1
1187.618   0.8953   0.2268   1.0000   1
1187.648   1.0603   0.2401   1.0000   1
1187.678   1.0652   0.2464   1.0000   1
1187.707   1.0801   0.2448   1.0000   1
1187.737   1.0704   0.2469   1.0000   1
1187.767   0.8947   0.2271   1.0000   1
1187.797   1.1355   0.2519   1.0000   1
1187.827   1.0505   0.2445   1.0000   1
1187.857   0.9460   0.2348   1.0000   1
1187.887   0.9730   0.2375   1.0000   1
1187.917   1.1899   0.2584   1.0000   1
1187.946   1.3363   0.2647   1.0000   1
1187.976   1.1434   0.2448   1.0000   1
1188.006   0.8016   0.2179   1.0000   1
1188.036   0.9721   0.2329   1.0000   1
1188.066   1.2684   0.2624   1.0000   1
1188.096   0.9071   0.2252   1.0000   1
1188.126   0.8947   0.2273   1.0000   1
1188.156   1.0530   0.2437   1.0000   1
1188.185   1.0295   0.2411   1.0000   1
1188.215   0.8762   0.2229   1.0000   1
1188.245   1.0945   0.2488   1.0000   1
1188.275   1.0978   0.2495   1.0000   1
1188.305   1.0379   0.2414   1.0000   1
1188.335   0.7974   0.2183   1.0000   1
1188.365   1.0399   0.2432   1.0000   1
1188.395   1.0589   0.2371   1.0000   1
1188.425   1.0287   0.2371   1.0000   1
1188.454   1.3914   0.2726   1.0000   1
1188.484   1.2394   0.2612   1.0000   1
1188.514   0.9884   0.2350   1.0000   1
1188.544   1.1674   0.2571   1.0000   1
1188.574   1.2331   0.2631   1.0000   1
1188.604   1.0074   0.2425   1.0000   1
1188.634   1.1006   0.2501   1.0000   1
1188.664   1.0940   7.8193   1.0000   1
1188.693   0.9676   0.2355   1.0000   1
1188.723   1.1929   0.2582   1.0000   1
1188.753   0.9570   0.2386   1.0000   1
1188.783   0.9984   0.2426   1.0000   1
1188.813   1.0915   0.2532   1.0000   1
1188.843   0.9622   0.2365   1.0000   1
1188.873   1.0319   0.2458   1.0000   1
1188.903   1.0780   0.2485   1.0000   1
1188.932   1.0336   0.2420   1.0000   1
1188.962   1.2523   0.2622   1.0000   1
1188.992   1.3041   0.2646   1.0000   1
1189.022   1.0850   0.2469   1.0000   1
1189.052   1.1938   0.2555   1.0000   1
1189.082   1.1177   0.2470   1.0000   1
1189.112   1.2153   0.2603   1.0000   1
1189.142   1.1590   0.2528   1.0000   1
1189.172   1.2303   0.2595   1.0000   1
1189.201   1.1640   0.2529   1.0000   1
1189.231   0.8671   0.2193   1.0000   1
1189.261   1.1572   0.2524   1.0000   1
1189.291   1.1165   0.2515   1.0000   1
1189.321   1.1523   0.2549   1.0000   1
1189.351   0.9436   0.2362   1.0000   1
1189.381   0.9817   0.2349   0.9999   1
1189.411   1.0604   0.2492   0.9999   1
1189.440   1.0505   0.2466   0.9999   1
1189.470   1.0565   0.2451   0.9999   1
1189.500   0.9269   0.2332   0.9999   1
1189.530   1.1075   0.2492   0.9999   1
1189.560   1.0993   0.2443   0.9999   1
1189.590   1.1089   0.2504   0.9999   1
1189.620   1.0317   0.2412   0.9998   1
1189.650   1.1355   0.2495   0.9996   1
1189.679   1.1824   0.2513   0.9993   1
1189.709   0.9825   0.2364   0.9985   1
1189.739   0.7580   0.2142   0.9971   1
1189.769   1.0078   0.2382   0.9942   1
1189.799   0.9283   0.2303   0.9889   1
1189.829   1.0277   0.2381   0.9796   1
1189.859   1.0889   0.2421   0.9640   1
1189.889   0.9795   0.2349   0.9393   1
1189.919   0.9276   0.2250   0.9024   1
1189.948   1.1360   0.2524   0.8505   1
1189.978   0.7224   0.2065   0.7826   1
1190.008   0.9319   0.2325   0.7001   1
1190.038   0.7815   0.2176   0.6074   1
1190.068   0.8338   0.2197   0.5113   1
1190.098   0.6120   0.1894   0.4197   1
1190.128   0.6082   0.1942   0.3390   1
1190.158   0.5159   0.1839   0.2736   1
1190.187   0.4303   0.1683   0.2248   1
1190.217   0.3911   0.1680   0.1922   1
1190.247   0.2071   0.1313   0.1744   1
1190.277   0.1664   0.1223   0.1703   1
1190.307   0.1648   0.1200   0.1796   1
1190.337   0.0629   0.0956   0.2030   1
1190.367   0.1024   0.1037   0.2418   1
1190.397   0.1867   0.1262   0.2970   1
1190.427   0.1687   0.1178   0.3687   1
1190.456   0.3047   0.1470   0.4543   1
1190.486   0.4797   0.1775   0.5484   1
1190.516   0.7359   0.2027   0.6441   1
1190.546   0.7955   0.2132   0.7335   1
1190.576   0.7552   0.2149   0.8108   1
1190.606   1.2073   0.2593   0.8725   1
1190.636   0.9852   0.2379   0.9183   1
1190.666   0.9567   0.2336   0.9502   1
1190.695   0.9060   0.2297   0.9710   1
1190.725   0.9950   0.2321   0.9838   1
1190.755   1.3717   0.2729   0.9913   1
1190.785   1.0300   0.2434   0.9955   1
1190.815   1.1581   0.2559   0.9977   1
1190.845   0.9863   0.2388   0.9989   1
1190.875   0.9641   0.2359   0.9994   1
1190.905   0.9580   0.2363   0.9997   1
1190.934   1.0173   0.2414   0.9998   1
1190.964   1.0978   0.2523   0.9999   1
1190.994   1.2556   0.2642   0.9999   1
1191.024   1.0629   0.2464   0.9999   1
1191.054   1.1152   0.2512   0.9999   1
1191.084   1.0903   0.2473   0.9999   1
1191.114   0.9537   0.2342   0.9999   1
1191.144   1.0505   0.2451   0.9999   1
1191.174   1.2110   0.2594   0.9999   1
1191.203   0.9655   0.2348   0.9999   1
1191.233   1.1649   0.2484   0.9999   1
1191.263   1.1268   0.2492   0.9999   1
1191.293   1.0954   0.2455   0.9999   1
1191.323   0.9547   0.2334   0.9999   1
1191.353   1.1936   0.2575   0.9999   1
1191.383   0.9506   0.2302   0.9999   1
1191.413   1.1389   0.2489   0.9999   1
1191.442   0.9449   0.2287   0.9999   1
1191.472   1.1710   0.2522   0.9999   1
1191.502   1.0164   0.2394   0.9999   1
1191.532   1.1535   0.2517   0.9999   1
1191.562   1.0101   0.2372   0.9999   1
1191.592   1.2348   0.2586   0.9999   1
1191.622   0.9347   0.2292   0.9999   1
1191.652   0.9371   0.2266   0.9999   1
1191.681   1.1695   0.2504   0.9999   1
1191.711   1.0945   0.2495   0.9999   1
1191.741   1.1003   0.2462   0.9999   1
1191.771   0.9113   0.2272   0.9999   1
1191.801   1.0474   0.2426   0.9999   1
1191.831   1.3181   0.2693   0.9999   1
1191.861   1.1040   0.2469   0.9999   1
1191.891   1.0036   0.2388   0.9999   1
1191.921   1.2098   0.2570   0.9999   1
1191.950   1.1165   0.2485   0.9999   1
1191.980   1.3130   0.2681   0.9999   1
1192.010   1.2473   0.2562   0.9999   1
1192.040   1.0181   0.2427   0.9999   1
1192.070   1.0922   0.2482   0.9999   1
1192.100   1.1838   0.2596   0.9999   1
1192.130   1.0449   0.2470   0.9999   1
1192.160   1.1204   0.2512   0.9997   1
1192.189   1.0491   0.2452   0.9961   1
1192.219   0.9492   0.2340   0.9692   1
1192.249   0.9007   0.2334   0.8959   1
1192.279   0.8034   0.2222   0.8517   1
1192.309   0.9287   0.2346   0.9111   1
1192.339   1.0164   0.2374   0.9776   1
1192.369   1.0580   0.2389   0.9976   1
1192.399   1.3563   0.2708   0.9997   1
1192.429   1.0485   0.2456   0.9998   1
1192.458   0.9648   0.2340   0.9997   1
1192.488   0.8687   0.2248   0.9996   1
1192.518   1.0469   0.2428   0.9993   1
1192.548   1.1078   0.2477   0.9986   1
1192.578   0.9962   0.2378   0.9972   1
1192.608   1.1248   0.2496   0.9944   1
1192.638   1.1613   0.2545   0.9889   1
1192.668   0.9595   0.2284   0.9788   1
1192.697   0.9674   0.2344   0.9611   1
1192.727   1.0432   0.2417   0.9318   1
1192.757   0.8511   0.2239   0.8860   1
1192.787   0.6154   0.1964   0.8200   1
1192.817   0.5339   0.1844   0.7312   1
1192.847   0.4024   0.1676   0.6226   1
1192.877   0.2318   0.1349   0.5016   1
1192.907   0.2499   0.1401   0.3803   1
1192.937   0.2354   0.1353   0.2712   1
1192.966   0.3464   0.1561   0.1827   1
1192.996   0.1731   0.1199   0.1182   1
1193.026   0.2088   0.1303   0.0751   1
1193.056   0.1214   0.1131   0.0489   1
1193.086   0.0858   0.1024   0.0339   1
1193.116   0.0266   0.0831   0.0267   1
1193.146   0.0627   0.0955   0.0245   1
1193.176   0.0450   0.0925   0.0269   1
1193.205   0.0631   0.0960   0.0345   1
1193.235   0.0312   0.0880   0.0500   1
1193.265   0.0482   0.0905   0.0769   1
1193.295   0.1280   0.1124   0.1211   1
1193.325   0.2273   0.1260   0.1866   1
1193.355   0.3801   0.1607   0.2765   1
1193.385   0.6112   0.1969   0.3864   1
1193.415   0.6990   0.1984   0.5080   1
1193.444   0.8432   0.2242   0.6287   1
1193.474   1.0233   0.2420   0.7362   1
1193.504   0.8832   0.2258   0.8241   1
1193.534   0.9552   0.2311   0.8888   1
1193.564   1.0169   0.2423   0.9338   1
1193.594   0.9678   0.2389   0.9622   1
1193.624   0.8379   0.2226   0.9796   1
1193.654   0.9770   0.2388   0.9893   1
1193.684   1.0387   0.2455   0.9946   1
1193.713   0.9628   0.2316   0.9973   1
1193.743   0.9304   0.2328   0.9987   1
1193.773   0.9461   0.2339   0.9993   1
1193.803   0.9776   0.2371   0.9996   1
1193.833   1.0891   0.2477   0.9997   1
1193.863   1.0119   0.2349   0.9998   1
1193.893   1.0228   0.2427   0.9998   1
1193.923   0.8791   0.2302   0.9999   1
1193.952   0.9796   0.2376   0.9999   1
1193.982   0.9163   0.2269   0.9999   1
1194.012   0.8781   0.2196   0.9999   1
1194.042   1.0870   0.2495   0.9999   1
1194.072   1.2252   0.2580   0.9999   1
1194.102   0.9332   0.2266   0.9999   1
1194.132   1.1823   0.2565   0.9999   1
1194.162   0.8410   0.2218   0.9999   1
1194.191   0.9575   0.2377   0.9999   1
1194.221   1.0138   0.2448   0.9999   1
1194.251   1.1485   0.2569   0.9999   1
1194.281   1.2203   0.2658   0.9999   1
1194.311   1.1178   0.2561   0.9999   1
1194.341   1.1460   0.2572   0.9999   1
1194.371   0.7308   0.2123   0.9999   1
1194.401   1.0900   0.2532   1.0000   1
1194.431   0.8882   0.2343   1.0000   1
1194.460   1.2939   0.2728   1.0000   1
1194.490   1.1883   0.2641   1.0000   1
1194.520   1.0576   0.2473   1.0000   0
1194.550   1.0446   0.2435   1.0000   0
1194.580   1.0853   0.2510   1.0000   0
1194.610   1.1423   0.2557   1.0000   0
1194.640   0.9859   0.2428   1.0000   0
1194.670   1.0863   0.2489   1.0000   0
1194.699   0.9772   0.2384   1.0000   0
1194.729   0.9270   0.2360   1.0000   0
1194.759   0.9649   0.2382   1.0000   0
1194.789   0.8694   0.2238   1.0000   0
1194.819   0.7014   0.2062   1.0000   0
1194.849   0.5841   0.1949   1.0000   0
1194.879   0.5659   0.1911   1.0000   0
1194.909   0.5750   0.1862   1.0000   0
1194.938   0.5568   0.1877   1.0000   0
1194.968   0.4640   0.1768   1.0000   0
1194.998   0.3864   0.1637   1.0000   0
1195.028   0.2409   0.1357   1.0000   0
1195.058   0.2919   0.1468   1.0000   0
1195.088   0.3400   0.1490   1.0000   0
1195.118   0.4935   0.1644   1.0000   0
1195.148   0.6454   0.1997   1.0000   0
1195.178   0.8657   0.2261   1.0000   0
1195.207   0.9694   0.2366   1.0000   0
1195.237   1.1883   0.2559   1.0000   0
1195.267   1.0512   0.2382   1.0000   0
1195.297   1.2029   0.2551   1.0000   0
1195.327   1.0757   0.2491   1.0000   0
1195.357   1.0372   0.2453   1.0000   0
1195.387   1.3181   0.2683   1.0000   0
1195.417   1.2619   0.2659   1.0000   0
1195.446   1.0697   0.2467   1.0000   1
1195.476   0.8981   0.2264   1.0000   1
1195.506   1.1787   0.2562   1.0000   1
1195.536   1.1184   0.2510   1.0000   1
1195.566   0.9495   0.2307   1.0000   1
1195.596   1.1531   0.2465   1.0000   1
1195.626   0.9095   0.2316   1.0000   1
1195.656   0.9647   0.2360   1.0000   1
1195.686   0.8959   0.2296   1.0000   1
1195.715   1.0923   0.2445   1.0000   1
1195.745   1.2271   0.2614   1.0000   1
1195.775   0.8968   0.2271   1.0000   1
1195.805   0.9802   0.2387   1.0000   1
1195.835   1.0447   0.2438   1.0000   1
1195.865   1.0743   0.2479   1.0000   1
1195.895   1.0312   0.2437   1.0000   1
1195.925   1.1188   0.2524   1.0000   1
1195.954   1.2959   0.2684   1.0000   1
1195.984   0.9371   0.2325   1.0000   1
1196.014   0.9285   0.2286   1.0000   1
1196.044   0.9224   0.2320   1.0000   1
1196.074   0.9510   0.2368   1.0000   1
1196.104   1.0511   0.2463   1.0000   1
1196.134   1.0025   0.2413   1.0000   1
1196.164   1.0206   0.2440   1.0000   1
1196.193   1.1639   0.2571   1.0000   1
1196.223   1.0776   0.2500   1.0000   1
1196.253   1.0524   0.2483   1.0000   1
1196.283   0.9863   0.2419   1.0000   1
1196.313   1.1215   0.2485   1.0000   1
1196.343   0.9818   0.2352   1.0000   1
1196.373   1.2001   0.2600   1.0000   1
1196.403   1.0211   0.2380   1.0000   1
1196.433   1.0169   0.2435   1.0000   1
1196.462   0.9219   0.2346   1.0000   1
1196.492   1.0451   0.2434   1.0000   1
1196.522   1.1335   0.2559   1.0000   1
1196.552   1.0493   0.2480   1.0000   1
1196.582   0.9065   0.2335   1.0000   1
1196.612   1.1460   0.2548   1.0000   1
1196.642   1.0308   0.2436   1.0000   1
1196.672   0.9366   0.2302   1.0000   1
1196.701   0.8893   0.2249   1.0000   1
1196.731   0.9367   0.2348   1.0000   1
1196.761   1.1323   0.2550   1.0000   1
1196.791   1.0383   0.2471   1.0000   1
1196.821   1.1038   0.2505   1.0000   1
1196.851   1.2479   0.2656   1.0000   1
1196.881   1.0614   0.2482   1.0000   1
1196.911   1.0312   0.2454   1.0000   1
1196.940   1.1033   0.2528   1.0000   1
1196.970   1.1829   0.2584   1.0000   1
1197.000   1.1432   0.2560   1.0000   1
1197.030   1.1606   0.2612   1.0000   1
1197.060   0.8881   0.2338   1.0000   1
1197.090   0.9974   0.2453   1.0000   1
1197.120   0.9715   0.2440   1.0000   1
1197.150   0.9121   0.2338   1.0000   1
1197.180   0.9067   0.2332   1.0000   1
1197.209   0.9729   0.2421   1.0000   1
1197.239   0.9392   0.2290   1.0000   1
1197.269   0.9389   0.2365   1.0000   1
1197.299   1.0777   0.2543   1.0000   1
1197.329   0.9361   0.2323   1.0000   1
1197.359   1.3587   0.2759   1.0000   1
1197.389   1.0837   0.2502   1.0000   1
1197.419   1.1075   0.2485   1.0000   1
1197.448   1.0446   0.2438   1.0000   1
1197.478   0.7602   0.2137   1.0000   1
1197.508   1.1039   0.2540   1.0000   1
1197.538   1.0668   0.2464   1.0000   1
1197.568   0.8530   0.2269   1.0000   1
1197.598   0.9140   0.2348   1.0000   1
1197.628   0.8279   0.2231   1.0000   1
1197.658   0.9393   0.2369   1.0000   1
1197.688   0.7254   0.2107   1.0000   1
1197.717   1.0966   0.2527   1.0000   1
1197.747   1.0760   0.2424   1.0000   1
1197.777   0.8941   0.2344   1.0000   1
1197.807   0.8882   0.2363   1.0000   1
1197.837   0.9507   0.2391   1.0000   1
1197.867   0.9519   0.2366   1.0000   1
1197.897   1.0497   0.2519   1.0000   1
1197.927   0.9525   0.3413   1.0000   1
1197.956   1.2237   0.2674   1.0000   1
1197.986   0.8526   0.2285   1.0000   1
1198.016   0.8910   0.2282   1.0000   1
1198.046   0.9443   0.2410   1.0000   1
1198.076   0.9921   0.2449   1.0000   1
1198.106   0.8394   0.2282   1.0000   1
1198.136   0.8461   0.2261   1.0000   1
1198.166   0.9612   0.2374   1.0000   1
1198.195   1.0038   0.2420   1.0000   1
1198.225   1.0197   0.2451   1.0000   1
1198.255   1.0841   0.2512   1.0000   1
1198.285   0.9945   0.2405   1.0000   1
1198.315   0.9647   0.2406   1.0000   1
1198.345   0.8203   0.2228   1.0000   1
1198.375   0.8301   0.2259   1.0000   1
1198.405   0.5768   0.1938   1.0000   1
1198.435   0.7151   0.2044   1.0000   1
1198.464   0.6085   0.2007   1.0000   1
1198.494   0.6813   0.2083   1.0000   1
1198.524   0.8386   0.2268   1.0000   1
1198.554   0.7763   0.2172   1.0000   1
1198.584   0.4835   0.1774   1.0000   1
1198.614   0.5819   0.1926   1.0000   1
1198.644   0.5901   0.1908   1.0000   1
1198.674   0.6751   0.2105   1.0000   1
1198.703   1.1305   0.2558   1.0000   1
1198.733   0.9363   0.2356   1.0000   1
1198.763   1.1155   0.2534   1.0000   1
1198.793   0.9723   0.2381   1.0000   1
1198.823   0.7501   0.2084   1.0000   1
1198.853   1.0417   0.2440   1.0000   1
1198.883   1.0770   0.2471   1.0000   1
1198.913   1.0065   0.2424   1.0000   1
1198.943   0.9597   0.2395   1.0000   1
1198.972   0.9860   0.2392   1.0000   1
1199.002   1.0785   0.2511   1.0000   1
1199.032   1.0359   0.2414   1.0000   1
1199.062   0.9898   0.2373   1.0000   1
1199.092   0.9892   0.2408   1.0000   1
1199.122   1.2679   0.2664   1.0000   1
1199.152   1.3790   0.2806   1.0000   1
1199.182   1.3498   0.2804   1.0000   1
1199.211   1.3953   0.2805   1.0000   1
1199.241   1.3440   0.2772   1.0000   1
