# Best-fit normalized data and profile from VoigtFit
# column 1 : Wavelength
# column 2 : Normalized flux
# column 3 : Normalized error
# column 4 : Best-fit profile
# column 5 : Pixel mask, 1=included, 0=excluded
1186.451   0.8231   0.4401   0.9995   1
1186.481   1.4963   0.5553   0.9995   1
1186.511   1.4114   0.5419   0.9995   1
1186.541   0.8894   0.4586   0.9995   1
1186.571   1.4162   0.5464   0.9995   1
1186.600   1.0748   0.4940   0.9995   1
1186.630   0.9930   0.4542   0.9995   1
1186.660   1.0655   0.4830   0.9995   1
1186.690   0.9714   0.4662   0.9994   1
1186.720   1.0541   0.4836   0.9994   1
1186.750   0.7729   0.4244   0.9994   1
1186.780   0.9763   0.4693   0.9994   1
1186.810   1.2431   0.4687   0.9994   1
1186.840   0.7596   0.4387   0.9994   1
1186.869   0.9484   0.4721   0.9994   1
1186.899   0.7297   0.4038   0.9994   1
1186.929   0.7480   0.4058   0.9994   1
1186.959   1.2468   0.5179   0.9994   1
1186.989   1.0796   0.4850   0.9994   1
1187.019   1.1484   0.4988   0.9994   1
1187.049   1.2209   0.5011   0.9993   1
1187.079   1.1039   0.4925   0.9993   1
1187.108   0.7564   0.4295   0.9993   1
1187.138   1.3185   0.5221   0.9993   1
1187.168   1.1052   0.4840   0.9993   1
1187.198   1.2024   0.5076   0.9993   1
1187.228   1.0753   0.4891   0.9993   1
1187.258   1.0401   0.4812   0.9993   1
1187.288   0.8556   0.4549   0.9993   1
1187.318   1.0626   0.4850   0.9992   1
1187.348   0.8676   0.4515   0.9992   1
1187.377   1.3348   0.5258   0.9992   1
1187.407   1.1247   0.4956   0.9992   1
1187.437   1.4036   0.5340   0.9992   1
1187.467   1.2241   0.4929   0.9992   1
1187.497   0.7625   0.4323   0.9992   1
1187.527   1.1357   0.4946   0.9992   1
1187.557   0.6838   0.4168   0.9991   1
1187.587   1.0563   0.4785   0.9991   1
1187.616   1.1976   0.5010   0.9991   1
1187.646   0.9672   0.4677   0.9991   1
1187.676   0.6741   0.4063   0.9991   1
1187.706   1.3846   0.5143   0.9991   1
1187.736   0.9226   0.4564   0.9990   1
1187.766   1.0545   0.4712   0.9990   1
1187.796   0.7638   0.4197   0.9990   1
1187.826   1.4140   0.5334   0.9990   1
1187.855   0.8057   0.4235   0.9990   1
1187.885   1.1590   0.4868   0.9989   1
1187.915   1.0348   0.4713   0.9989   1
1187.945   1.1921   0.4881   0.9989   1
1187.975   1.0197   0.4701   0.9989   1
1188.005   1.3250   0.5149   0.9989   1
1188.035   1.0955   0.4885   0.9988   1
1188.065   0.8064   0.4330   0.9988   1
1188.095   0.7892   0.3832   0.9988   1
1188.124   1.0118   0.4698   0.9987   1
1188.154   0.6852   0.4034   0.9987   1
1188.184   0.9764   0.4592   0.9987   1
1188.214   0.9923   0.4647   0.9987   1
1188.244   1.1706   0.4899   0.9986   1
1188.274   1.1764   0.4880   0.9986   1
1188.304   1.2463   0.4971   0.9986   1
1188.334   1.0290   0.4752   0.9985   1
1188.363   0.9315   0.4573   0.9985   1
1188.393   0.9540   0.4647   0.9985   1
1188.423   0.9950   0.4605   0.9984   1
1188.453   1.0729   0.4746   0.9984   1
1188.483   0.9979   0.4429   0.9983   1
1188.513   1.1639   0.4657   0.9983   1
1188.543   1.1127   0.4825   0.9982   1
1188.573   0.6017   0.3718   0.9982   1
1188.603   0.7411   0.4190   0.9981   1
1188.632   0.7695   0.4196   0.9981   1
1188.662   1.1617   0.4802   0.9980   1
1188.692   0.8315   0.4402   0.9980   1
1188.722   0.8763   0.4536   0.9979   1
1188.752   1.3370   0.5123   0.9978   1
1188.782   0.9686   0.4708   0.9977   1
1188.812   1.3683   0.5260   0.9976   1
1188.842   0.5484   0.3618   0.9974   1
1188.871   1.3378   0.5227   0.9971   1
1188.901   1.1576   0.4973   0.9964   1
1188.931   0.9469   0.4641   0.9949   1
1188.961   1.1302   0.4949   0.9920   1
1188.991   1.1190   0.4989   0.9864   1
1189.021   0.7967   0.4348   0.9766   1
1189.051   1.0359   0.4756   0.9608   1
1189.081   1.0810   0.4782   0.9369   1
1189.111   1.0128   0.4627   0.9045   1
1189.140   0.5305   0.3545   0.8644   1
1189.170   0.7616   0.4194   0.8193   1
1189.200   0.7093   0.4054   0.7743   1
1189.230   1.0932   0.4737   0.7349   1
1189.260   0.5690   0.3851   0.7068   1
1189.290   0.7987   0.4219   0.6934   1
1189.320   0.4386   0.3317   0.6970   1
1189.350   0.6462   0.3928   0.7169   1
1189.380   0.7386   0.4157   0.7501   1
1189.409   0.6493   0.3922   0.7922   1
1189.439   0.3572   0.3221   0.8375   1
1189.469   0.9166   0.4320   0.8804   1
1189.499   0.8379   0.4294   0.9162   1
1189.529   0.5397   0.3743   0.9395   1
1189.559   0.9467   0.4332   0.9321   1
1189.589   0.8513   0.4281   0.8531   1
1189.619   0.6956   0.4028   0.7067   1
1189.648   0.5736   0.3496   0.6044   1
1189.678   0.6425   0.3848   0.6625   1
1189.708   0.7788   0.4140   0.8168   1
1189.738   0.9535   0.4434   0.9331   1
1189.768   0.6733   0.3916   0.9764   1
1189.798   1.2634   0.4901   0.9849   1
1189.828   0.7918   0.4218   0.9845   1
1189.858   0.4822   0.3623   0.9829   1
1189.887   0.8780   0.4341   0.9809   1
1189.917   0.9392   0.4423   0.9785   1
1189.947   0.6592   0.3643   0.9756   1
1189.977   0.9946   0.4427   0.9720   1
1190.007   0.9025   0.4337   0.9675   1
1190.037   0.9179   0.4426   0.9618   1
1190.067   1.1912   0.4824   0.9543   1
1190.097   1.0763   0.4593   0.9443   1
1190.127   0.8718   0.4311   0.9305   1
1190.156   0.8924   0.4264   0.9104   1
1190.186   0.5013   0.3619   0.8771   1
1190.216   1.0122   0.4524   0.8060   1
1190.246   0.3546   0.3163   0.6328   1
1190.276   0.4537   0.3418   0.3573   1
1190.306   0.1919   0.2862   0.1190   1
1190.336   0.0749   0.2354   0.0220   1
1190.366   0.2109   0.2737   0.0019   1
1190.395   -0.0309   0.2072   0.0003   1
1190.425   0.1724   0.2736   0.0052   1
1190.455   0.0670   0.2291   0.0434   1
1190.485   0.3584   0.3173   0.1917   1
1190.515   0.3711   0.3166   0.4624   1
1190.545   0.5309   0.3475   0.7109   1
1190.575   0.9865   0.4302   0.8385   1
1190.605   0.7145   0.3822   0.8913   1
1190.635   0.9905   0.4394   0.9184   1
1190.664   1.2017   0.4758   0.9356   1
1190.694   1.0590   0.4531   0.9478   1
1190.724   1.1122   0.4624   0.9567   1
1190.754   1.1278   0.4622   0.9634   1
1190.784   1.2323   0.4795   0.9686   1
1190.814   0.6849   0.3855   0.9727   1
1190.844   1.0696   0.4531   0.9760   1
1190.874   1.1716   0.4642   0.9787   1
1190.903   1.2752   0.4802   0.9809   1
1190.933   0.8815   0.4201   0.9827   1
1190.963   0.9589   0.4348   0.9843   1
1190.993   1.0546   0.4527   0.9856   1
1191.023   0.9132   0.4263   0.9867   1
1191.053   0.9401   0.4273   0.9877   1
1191.083   1.1505   0.4564   0.9885   1
1191.113   1.2676   0.4795   0.9892   1
1191.143   0.7889   0.3755   0.9898   1
1191.172   1.1075   0.4618   0.9904   1
1191.202   1.1309   0.4680   0.9909   1
1191.232   0.9819   0.4481   0.9913   1
1191.262   1.1954   0.4605   0.9916   1
1191.292   0.9040   0.4366   0.9919   1
1191.322   1.1402   0.4719   0.9922   1
1191.352   0.8114   0.4237   0.9925   1
1191.382   1.2564   0.4879   0.9927   1
1191.411   1.2644   0.4839   0.9928   1
1191.441   1.1169   0.4595   0.9930   1
1191.471   1.0709   0.4284   0.9931   1
1191.501   0.9790   0.4370   0.9932   1
1191.531   1.0002   0.4508   0.9933   1
1191.561   1.0659   0.4564   0.9934   1
1191.591   0.8287   0.4173   0.9934   1
1191.621   0.9646   0.4463   0.9934   1
1191.651   1.1224   0.4600   0.9934   1
1191.680   1.0268   0.4446   0.9933   1
1191.710   1.0640   0.4497   0.9931   1
1191.740   1.2220   0.4670   0.9925   1
1191.770   1.5094   0.5068   0.9912   1
1191.800   1.0023   0.4130   0.9884   1
1191.830   1.0692   0.4332   0.9826   1
1191.860   1.1315   0.4522   0.9716   1
1191.890   1.0820   0.4439   0.9526   1
1191.919   0.8603   0.4061   0.9216   1
1191.949   1.1204   0.4535   0.8764   1
1191.979   0.8160   0.3955   0.8165   1
1192.009   0.6843   0.3768   0.7442   1
1192.039   0.5824   0.3589   0.6667   1
1192.069   0.7224   0.3786   0.5922   1
1192.099   0.4965   0.3408   0.5301   1
1192.129   0.4124   0.3187   0.4862   1
1192.159   0.7130   0.3802   0.4648   1
1192.188   0.4853   0.3433   0.4682   1
1192.218   0.7027   0.3759   0.4950   1
1192.248   0.5998   0.3662   0.5438   1
1192.278   0.5572   0.3613   0.6096   1
1192.308   0.9142   0.4106   0.6848   1
1192.338   1.0802   0.4339   0.7605   1
1192.368   0.8977   0.4089   0.8280   1
1192.398   0.8155   0.4030   0.8765   1
1192.427   1.1946   0.4544   0.8734   1
1192.457   0.7222   0.3882   0.7642   1
1192.487   0.4664   0.3372   0.5488   1
1192.517   0.5555   0.3585   0.3874   1
1192.547   0.4064   0.3119   0.4414   1
1192.577   0.6267   0.3549   0.6641   1
1192.607   1.1119   0.4322   0.8618   1
1192.637   0.7905   0.3784   0.9497   1
1192.667   1.0729   0.4340   0.9689   1
1192.696   0.9158   0.4151   0.9689   1
1192.726   1.2828   0.4633   0.9658   1
1192.756   1.1658   0.4510   0.9619   1
1192.786   1.1369   0.4486   0.9571   1
1192.816   1.2162   0.4540   0.9513   1
1192.846   1.0237   0.4275   0.9442   1
1192.876   1.1170   0.4419   0.9355   1
1192.906   0.9935   0.4239   0.9244   1
1192.935   0.9539   0.4181   0.9100   1
1192.965   0.7230   0.3795   0.8912   1
1192.995   0.5571   0.3407   0.8658   1
1193.025   0.9001   0.4089   0.8298   1
1193.055   0.8655   0.4074   0.7762   1
1193.085   0.6856   0.3642   0.6833   1
1193.115   0.5605   0.3462   0.5098   1
1193.145   0.2074   0.2635   0.2730   1
1193.175   0.2912   0.2876   0.0874   1
1193.204   0.0362   0.2115   0.0155   1
1193.234   0.0940   0.2203   0.0013   1
1193.264   0.0768   0.2167   0.0001   1
1193.294   0.1573   0.2409   0.0014   1
1193.324   0.2087   0.2620   0.0152   1
1193.354   0.1716   0.2501   0.0907   1
1193.384   0.1932   0.2542   0.2777   1
1193.414   0.5118   0.3419   0.5149   1
1193.443   0.5965   0.3559   0.6845   1
1193.473   0.8998   0.4052   0.7772   1
1193.503   0.8575   0.4023   0.8310   1
1193.533   1.0441   0.4279   0.8663   1
1193.563   1.0924   0.4320   0.8918   1
1193.593   0.8259   0.3907   0.9106   1
1193.623   1.1729   0.4485   0.9248   1
1193.653   1.1074   0.4355   0.9360   1
1193.682   0.9571   0.4141   0.9448   1
1193.712   0.7067   0.3768   0.9519   1
1193.742   1.2530   0.4602   0.9577   1
1193.772   1.0630   0.4251   0.9625   1
1193.802   1.0138   0.4204   0.9665   1
1193.832   0.9096   0.4062   0.9699   1
1193.862   1.4054   0.4687   0.9728   1
1193.892   0.9245   0.4106   0.9753   1
1193.922   1.2332   0.4529   0.9775   1
1193.951   1.1610   0.4378   0.9794   1
1193.981   0.9588   0.4085   0.9810   1
1194.011   1.0700   0.4206   0.9825   1
1194.041   1.0567   0.4296   0.9838   1
1194.071   0.9285   0.4075   0.9850   1
1194.101   1.2372   0.4504   0.9860   1
1194.131   1.0648   0.4201   0.9869   1
1194.161   1.0549   0.4113   0.9878   1
1194.190   0.8432   0.3894   0.9885   1
1194.220   0.9767   0.4061   0.9892   1
1194.250   1.3346   0.4623   0.9899   1
1194.280   0.9029   0.3928   0.9904   1
1194.310   0.9071   0.3740   0.9910   1
1194.340   1.1494   0.4388   0.9914   1
1194.370   1.4141   0.4672   0.9919   1
1194.400   0.9907   0.4093   0.9923   1
1194.430   1.1955   0.4451   0.9927   1
1194.459   0.7901   0.3821   0.9930   1
1194.489   0.9319   0.4043   0.9934   1
1194.519   1.1438   0.4367   0.9937   1
1194.549   0.8876   0.4013   0.9939   1
1194.579   0.8796   0.3912   0.9942   1
1194.609   1.1671   0.4374   0.9945   0
1194.639   0.9869   0.4059   0.9947   0
1194.669   0.9352   0.3861   0.9949   0
1194.698   0.9972   0.4088   0.9951   0
1194.728   0.8421   0.3911   0.9953   0
1194.758   0.7360   0.3707   0.9955   0
1194.788   0.6210   0.3477   0.9956   0
1194.818   1.0580   0.4142   0.9958   0
1194.848   1.1727   0.4342   0.9960   0
1194.878   1.1714   0.4279   0.9961   0
1194.908   0.6032   0.3397   0.9962   0
1194.938   0.7216   0.3710   0.9964   0
1194.967   0.5598   0.3299   0.9965   0
1194.997   0.6024   0.3410   0.9966   0
1195.027   0.5869   0.3391   0.9967   0
1195.057   0.3415   0.2889   0.9968   0
1195.087   0.6106   0.3449   0.9969   0
1195.117   0.5972   0.3453   0.9970   0
1195.147   0.5783   0.3420   0.9971   0
1195.177   0.6699   0.3571   0.9972   0
1195.206   0.6325   0.3513   0.9973   0
1195.236   0.4758   0.3176   0.9973   0
1195.266   0.6507   0.3480   0.9974   0
1195.296   0.5190   0.3170   0.9975   0
1195.326   0.4126   0.3099   0.9976   0
1195.356   0.4960   0.3133   0.9976   0
1195.386   0.4308   0.3068   0.9977   0
1195.416   0.3191   0.2741   0.9978   0
1195.446   0.2040   0.2526   0.9978   0
1195.475   0.0831   0.2166   0.9979   0
1195.505   0.0835   0.2148   0.9979   0
1195.535   0.1028   0.2114   0.9980   0
1195.565   0.0304   0.1943   0.9980   0
1195.595   0.0300   0.1962   0.9981   0
1195.625   0.0221   0.1927   0.9981   0
1195.655   0.1836   0.2429   0.9982   0
1195.685   0.3755   0.3039   0.9982   0
1195.714   0.4550   0.3047   0.9982   0
1195.744   0.5250   0.3075   0.9983   0
1195.774   0.7467   0.3674   0.9983   0
1195.804   0.8262   0.3851   0.9984   0
1195.834   0.6033   0.3319   0.9984   0
1195.864   0.9474   0.3998   0.9984   0
1195.894   1.0174   0.3972   0.9985   0
1195.924   0.7861   0.3743   0.9985   0
1195.954   0.7844   0.3785   0.9985   0
1195.983   0.7659   0.3716   0.9986   0
1196.013   0.7831   0.3695   0.9986   0
1196.043   0.6346   0.3445   0.9986   0
1196.073   0.7744   0.3713   0.9986   0
1196.103   0.6735   0.3558   0.9987   0
1196.133   0.7352   0.3435   0.9987   0
1196.163   1.4229   0.4599   0.9987   0
1196.193   0.9561   0.3931   0.9987   0
1196.222   0.8929   0.3890   0.9988   0
1196.252   0.6733   0.3522   0.9988   0
1196.282   1.0239   0.4075   0.9988   0
1196.312   1.1307   0.4153   0.9988   0
1196.342   0.7584   0.3394   0.9989   1
1196.372   0.8501   0.3737   0.9989   1
1196.402   1.0041   0.4045   0.9989   1
1196.432   1.0102   0.3981   0.9989   1
1196.462   0.9664   0.3998   0.9989   1
1196.491   1.0372   0.4041   0.9990   1
1196.521   0.8245   0.3789   0.9990   1
1196.551   1.0566   0.4106   0.9990   1
1196.581   1.0813   0.4106   0.9990   1
1196.611   0.9427   0.3919   0.9990   1
1196.641   0.8332   0.3696   0.9990   1
1196.671   1.0238   0.4069   0.9991   1
1196.701   0.8950   0.3855   0.9991   1
1196.730   1.1486   0.4211   0.9991   1
1196.760   0.8934   0.3863   0.9991   1
1196.790   0.9798   0.3989   0.9991   1
1196.820   1.0715   0.4069   0.9991   1
1196.850   1.1312   0.4159   0.9991   1
1196.880   0.8469   0.3748   0.9992   1
1196.910   0.8829   0.3785   0.9992   1
1196.940   1.1676   0.4214   0.9992   1
1196.970   0.8201   0.3721   0.9992   1
1196.999   0.9233   0.3858   0.9992   1
1197.029   0.9746   0.4002   0.9992   1
1197.059   0.9234   0.3949   0.9992   1
1197.089   0.9049   0.3965   0.9992   1
1197.119   0.9211   0.3999   0.9993   1
1197.149   1.0103   0.4057   0.9993   1
1197.179   1.0313   0.4172   0.9993   1
1197.209   0.6720   0.3594   0.9993   1
1197.238   1.0017   0.4091   0.9993   1
1197.268   0.9255   0.3995   0.9993   1
