# Best-fit normalized data and profile from VoigtFit
# column 1 : Wavelength
# column 2 : Normalized flux
# column 3 : Normalized error
# column 4 : Best-fit profile
# column 5 : Pixel mask, 1=included, 0=excluded
1202.614   1.0595   0.0928   1.0000   1
1202.644   0.9426   0.0883   1.0000   1
1202.673   1.0483   0.0926   1.0000   1
1202.703   1.0134   0.0910   1.0000   1
1202.733   1.0321   0.0918   1.0000   1
1202.763   0.9881   0.0898   1.0000   1
1202.793   0.9610   0.0887   1.0000   1
1202.823   0.9308   0.0872   1.0000   1
1202.853   1.0411   0.0920   1.0000   1
1202.883   0.9531   0.0884   1.0000   1
1202.913   0.9462   0.0879   1.0000   1
1202.942   0.9503   0.0875   1.0000   1
1202.972   1.0561   0.0924   1.0000   1
1203.002   1.0320   0.0912   1.0000   1
1203.032   1.0829   0.0933   1.0000   1
1203.062   1.0349   0.0913   1.0000   1
1203.092   1.1031   0.0940   1.0000   1
1203.122   0.9228   0.0862   1.0000   1
1203.152   0.9732   0.0882   1.0000   1
1203.182   0.9682   0.0882   1.0000   1
1203.211   1.0228   0.0902   1.0000   1
1203.241   1.0194   0.0902   1.0000   1
1203.271   1.1537   0.0953   1.0000   1
1203.301   0.9567   0.0872   1.0000   1
1203.331   0.9984   0.0887   1.0000   1
1203.361   0.9849   0.0881   1.0000   1
1203.391   1.0293   0.0896   1.0000   1
1203.421   1.0345   0.0899   1.0000   1
1203.451   1.0176   0.0893   1.0000   1
1203.481   0.9328   0.0857   1.0000   1
1203.510   0.9821   0.0875   1.0000   1
1203.540   0.9723   0.0869   1.0000   1
1203.570   0.9683   0.0867   1.0000   1
1203.600   0.9394   0.0853   1.0000   1
1203.630   0.9268   0.0849   1.0000   1
1203.660   0.9853   0.0873   1.0000   1
1203.690   0.9922   0.0874   1.0000   1
1203.720   0.9678   0.0864   1.0000   1
1203.750   1.0438   0.0893   1.0000   1
1203.779   1.0264   0.0885   1.0000   1
1203.809   1.0946   0.0911   1.0000   1
1203.839   1.0377   0.0889   1.0000   1
1203.869   0.9701   0.0860   1.0000   1
1203.899   1.0161   0.0878   1.0000   1
1203.929   1.0202   0.0878   1.0000   1
1203.959   0.9036   0.0830   1.0000   1
1203.989   0.9973   0.0868   1.0000   1
1204.019   0.9118   0.0833   1.0000   1
1204.048   0.9659   0.0854   1.0000   1
1204.078   1.0142   0.0873   1.0000   1
1204.108   0.9351   0.0839   1.0000   1
1204.138   1.0400   0.0882   1.0000   1
1204.168   1.0282   0.0874   1.0000   1
1204.198   0.9860   0.0861   1.0000   1
1204.228   0.9877   0.0860   1.0000   1
1204.258   0.9600   0.0842   1.0000   1
1204.288   1.0267   0.0876   1.0000   1
1204.318   0.9550   0.0846   1.0000   1
1204.347   1.0128   0.0866   1.0000   1
1204.377   0.9585   0.0846   1.0000   1
1204.407   0.9731   0.0849   1.0000   1
1204.437   0.9976   0.0862   1.0000   1
1204.467   0.9408   0.0838   0.9999   1
1204.497   1.0065   0.0863   0.9999   1
1204.527   1.0045   0.0865   0.9999   1
1204.557   0.9299   0.0834   0.9998   1
1204.587   1.0761   0.0892   0.9993   1
1204.616   0.9545   0.0845   0.9975   1
1204.646   1.0249   0.0873   0.9915   1
1204.676   0.9440   0.0842   0.9749   1
1204.706   0.9478   0.0843   0.9396   1
1204.736   0.9127   0.0828   0.8799   1
1204.766   0.7960   0.0774   0.8012   1
1204.796   0.6988   0.0732   0.7229   1
1204.826   0.6917   0.0728   0.6736   1
1204.856   0.6387   0.0705   0.6712   1
1204.885   0.7736   0.0769   0.7156   1
1204.915   0.7846   0.0776   0.7869   1
1204.945   0.8131   0.0787   0.8527   1
1204.975   0.8566   0.0808   0.8790   1
1205.005   0.9156   0.0835   0.8473   1
1205.035   0.7540   0.0765   0.7623   1
1205.065   0.6221   0.0702   0.6508   1
1205.095   0.5705   0.0676   0.5522   1
1205.125   0.4876   0.0622   0.5024   1
1205.154   0.5466   0.0664   0.5175   1
1205.184   0.5709   0.0676   0.5864   1
1205.214   0.6459   0.0716   0.6645   1
1205.244   0.7303   0.0758   0.6829   1
1205.274   0.5766   0.0684   0.6227   1
1205.304   0.6273   0.0708   0.5879   1
1205.334   0.6635   0.0729   0.6711   1
1205.364   0.7693   0.0780   0.8121   1
1205.394   0.9655   0.0866   0.8892   1
1205.424   0.8684   0.0830   0.8660   1
1205.453   0.7782   0.0796   0.7939   1
1205.483   0.7059   0.0769   0.7441   1
1205.513   0.8034   0.0819   0.7570   1
1205.543   0.8563   0.0834   0.8249   1
1205.573   0.8451   0.0827   0.9058   1
1205.603   0.9849   0.0888   0.9618   1
1205.633   0.9441   0.0868   0.9881   1
1205.663   1.0076   0.0901   0.9965   1
1205.693   0.9620   0.0885   0.9977   1
1205.722   0.9877   0.0893   0.9965   1
1205.752   0.9676   0.0885   0.9936   1
1205.782   1.0750   0.0927   0.9882   1
1205.812   1.0355   0.0912   0.9791   1
1205.842   0.9659   0.0882   0.9639   1
1205.872   0.9619   0.0879   0.9399   1
1205.902   0.9619   0.0880   0.9033   1
1205.932   0.9976   0.0892   0.8503   1
1205.962   0.8613   0.0831   0.7784   1
1205.991   0.6648   0.0738   0.6874   1
1206.021   0.5296   0.0667   0.5801   1
1206.051   0.3463   0.0546   0.4637   1
1206.081   0.2789   0.0504   0.3487   1
1206.111   0.2616   0.0485   0.2456   1
1206.141   0.1601   0.0397   0.1618   1
1206.171   0.1443   0.0379   0.0998   1
1206.201   0.1312   0.0354   0.0583   1
1206.231   0.0752   0.0296   0.0332   1
1206.261   0.0357   0.0224   0.0188   1
1206.290   0.0435   0.0239   0.0109   1
1206.320   0.0361   0.0217   0.0069   1
1206.350   0.0143   0.0164   0.0049   1
1206.380   0.0209   0.0191   0.0042   1
1206.410   0.0148   0.0167   0.0043   1
1206.440   0.0091   0.0153   0.0054   1
1206.470   0.0182   0.0171   0.0079   1
1206.500   0.0302   0.0205   0.0129   1
1206.530   0.0232   0.0192   0.0225   1
1206.559   0.0476   0.0253   0.0402   1
1206.589   0.0507   0.0243   0.0702   1
1206.619   0.0754   0.0268   0.1178   1
1206.649   0.1345   0.0377   0.1865   1
1206.679   0.2281   0.0462   0.2771   1
1206.709   0.4032   0.0587   0.3855   1
1206.739   0.5903   0.0707   0.5021   1
1206.769   0.7270   0.0777   0.6165   1
1206.799   0.8604   0.0847   0.7192   1
1206.828   0.9024   0.0862   0.8045   1
1206.858   0.9027   0.0861   0.8696   1
1206.888   0.9970   0.0904   0.9167   1
1206.918   0.9732   0.0889   0.9488   1
1206.948   1.0001   0.0893   0.9697   1
1206.978   0.9719   0.0879   0.9827   1
1207.008   1.0096   0.0893   0.9904   1
1207.038   1.0126   0.0895   0.9948   1
1207.068   0.9671   0.0872   0.9972   1
1207.098   1.1109   0.0934   0.9985   1
1207.127   0.9778   0.0882   0.9992   1
1207.157   1.0227   0.0901   0.9996   1
1207.187   1.0154   0.0898   0.9997   1
1207.217   0.9997   0.0893   0.9998   1
1207.247   1.0208   0.0902   0.9999   1
1207.277   0.9529   0.0874   0.9999   1
1207.307   1.0066   0.0899   0.9999   1
1207.337   1.0416   0.0912   0.9999   1
1207.367   0.9844   0.0889   0.9999   1
1207.396   1.0666   0.0926   0.9999   1
1207.426   1.0860   0.0935   0.9999   1
1207.456   1.0349   0.0915   0.9999   1
1207.486   0.9034   0.0857   0.9999   1
1207.516   0.9591   0.0884   0.9999   1
1207.546   1.0024   0.0903   0.9999   1
1207.576   0.9741   0.0889   0.9999   1
1207.606   1.0668   0.0933   0.9999   1
1207.636   1.0002   0.0908   0.9999   1
1207.665   0.9646   0.0892   0.9999   1
1207.695   1.0037   0.0907   1.0000   1
1207.725   0.9188   0.0875   1.0000   1
1207.755   0.9964   0.0910   1.0000   1
1207.785   1.0078   0.0917   1.0000   1
1207.815   1.0120   0.0924   1.0000   1
1207.845   1.0379   0.0943   1.0000   1
1207.875   1.0690   0.0957   1.0000   1
1207.905   0.9237   0.0901   1.0000   1
1207.935   0.9951   0.0927   1.0000   1
1207.964   1.0457   0.0948   1.0000   1
1207.994   1.0719   0.0960   1.0000   1
1208.024   1.0424   0.0952   1.0000   1
1208.054   0.9431   0.0912   1.0000   1
1208.084   1.0168   0.0948   1.0000   1
1208.114   1.0112   0.0945   1.0000   1
1208.144   1.0159   0.0950   1.0000   1
1208.174   1.0745   0.0972   1.0000   1
1208.204   0.9315   0.0912   1.0000   1
1208.233   1.0154   0.0946   1.0000   1
1208.263   0.9996   0.0940   1.0000   1
1208.293   1.0577   0.0961   1.0000   1
1208.323   0.9617   0.0920   1.0000   1
1208.353   1.0640   0.0964   1.0000   1
1208.383   1.0763   0.0971   1.0000   1
1208.413   1.0686   0.0969   1.0000   1
1208.443   1.0458   0.0959   1.0000   1
1208.473   0.9694   0.0930   1.0000   1
1208.502   1.0319   0.0958   1.0000   1
1208.532   0.9903   0.0942   1.0000   1
1208.562   0.9665   0.0932   1.0000   1
1208.592   0.9839   0.0935   1.0000   1
1208.622   0.9995   0.0950   1.0000   1
1208.652   1.0941   0.0989   1.0000   1
1208.682   1.0544   0.0975   1.0000   1
1208.712   1.0401   0.0971   1.0000   1
1208.742   0.9846   0.0946   1.0000   1
1208.771   0.9916   0.0952   1.0000   1
1208.801   0.9238   0.0922   1.0000   1
1208.831   1.0271   0.0966   1.0000   1
1208.861   1.0435   0.0978   1.0000   1
1208.891   1.1090   0.1008   1.0000   1
1208.921   1.0627   0.0993   1.0000   1
1208.951   1.0178   0.0981   1.0000   1
1208.981   1.0275   0.0988   1.0000   1
1209.011   0.9862   0.0976   1.0000   1
1209.041   1.0219   0.0991   1.0000   1
1209.070   0.9851   0.0978   1.0000   1
1209.100   1.0023   0.0985   1.0000   1
1209.130   0.9597   0.0971   1.0000   1
1209.160   0.9581   0.0967   1.0000   1
1209.190   1.1117   0.1027   1.0000   1
1209.220   0.9561   0.0961   1.0000   1
1209.250   0.9865   0.0964   1.0000   1
1209.280   1.0496   0.1009   1.0000   1
1209.310   0.9533   0.0968   1.0000   1
1209.339   0.9687   0.0973   1.0000   1
1209.369   0.9539   0.0971   1.0000   1
1209.399   1.0162   0.0995   1.0000   1
1209.429   0.9678   0.0953   1.0000   1
1209.459   0.9821   0.0976   1.0000   1
1209.489   1.0078   0.0987   1.0000   1
1209.519   0.9549   0.0957   1.0000   1
1209.549   0.9471   0.0959   1.0000   1
1209.579   0.9164   0.0944   1.0000   1
1209.608   1.0100   0.0988   1.0000   1
1209.638   0.9741   0.0977   1.0000   1
1209.668   1.0819   0.1028   1.0000   1
1209.698   0.9254   0.0955   1.0000   1
1209.728   1.0384   0.1011   1.0000   1
1209.758   0.9730   0.0980   1.0000   1
1209.788   0.9890   0.0989   1.0000   1
1209.818   0.9917   0.0994   1.0000   1
1209.848   0.9664   0.0982   1.0000   1
1209.877   0.9557   0.0977   1.0000   1
1209.907   1.0269   0.1012   1.0000   1
1209.937   1.0304   0.1017   1.0000   1
1209.967   1.0467   0.1028   1.0000   1
1209.997   0.8641   0.0943   1.0000   1
1210.027   0.9463   0.0983   1.0000   1
1210.057   0.9102   0.0968   1.0000   1
1210.087   0.9853   0.1007   1.0000   1
1210.117   0.9312   0.0982   1.0000   1
1210.147   0.9935   0.1015   1.0000   1
1210.176   0.9742   0.1001   1.0000   1
1210.206   0.9656   0.1005   1.0000   1
1210.236   1.0335   0.1027   1.0000   1
1210.266   1.0172   0.1032   1.0000   1
1210.296   0.9693   0.1012   1.0000   1
1210.326   1.0445   0.1053   1.0000   1
1210.356   0.9296   0.1000   1.0000   1
1210.386   0.9452   0.1007   1.0000   1