# Best-fit normalized data and profile from VoigtFit
# column 1 : Wavelength
# column 2 : Normalized flux
# column 3 : Normalized error
# column 4 : Best-fit profile
# column 5 : Pixel mask, 1=included, 0=excluded
1330.083   1.0775   0.0984   1.0000   1
1330.113   1.0550   0.0974   1.0000   1
1330.143   1.0881   0.0983   1.0000   1
1330.173   1.0957   0.0987   1.0000   1
1330.202   0.9800   0.0940   1.0000   1
1330.232   0.9830   0.0937   1.0000   1
1330.262   1.0043   0.0949   1.0000   1
1330.292   1.0244   0.0957   1.0000   1
1330.322   1.0209   0.0955   1.0000   1
1330.352   0.9448   0.0921   1.0000   1
1330.382   0.9828   0.0937   1.0000   1
1330.412   0.9662   0.0928   1.0000   1
1330.442   1.0130   0.0947   1.0000   1
1330.472   0.9728   0.0923   1.0000   1
1330.501   1.0727   0.0971   1.0000   1
1330.531   1.0827   0.0974   1.0000   1
1330.561   1.0658   0.0968   1.0000   1
1330.591   1.0756   0.0970   1.0000   1
1330.621   0.9234   0.0904   1.0000   1
1330.651   1.0497   0.0959   1.0000   1
1330.681   1.0302   0.0949   1.0000   1
1330.711   0.9825   0.0911   1.0000   1
1330.741   1.0926   0.0971   1.0000   1
1330.770   0.9346   0.0906   1.0000   1
1330.800   1.0205   0.0943   1.0000   1
1330.830   0.9566   0.0910   1.0000   1
1330.860   1.0116   0.0937   1.0000   1
1330.890   1.0197   0.0940   1.0000   1
1330.920   1.0195   0.0939   1.0000   1
1330.950   1.0094   0.0935   1.0000   1
1330.980   1.0023   0.0931   1.0000   1
1331.010   1.0002   0.0929   1.0000   1
1331.040   0.9533   0.0909   1.0000   1
1331.069   1.0647   0.0954   1.0000   1
1331.099   1.0031   0.0927   1.0000   1
1331.129   0.9518   0.0905   1.0000   1
1331.159   0.9238   0.0893   1.0000   1
1331.189   1.0005   0.0923   1.0000   1
1331.219   0.9741   0.0914   1.0000   1
1331.249   0.9763   0.0913   1.0000   1
1331.279   0.8688   0.0866   1.0000   1
1331.309   0.9724   0.0911   1.0000   1
1331.338   0.9653   0.0906   1.0000   1
1331.368   0.9486   0.0898   1.0000   1
1331.398   0.9592   0.0903   1.0000   1
1331.428   1.0726   0.0950   1.0000   1
1331.458   1.0228   0.0928   1.0000   1
1331.488   1.0087   0.0921   1.0000   1
1331.518   1.0696   0.0946   1.0000   1
1331.548   0.9744   0.0906   1.0000   1
1331.578   1.0151   0.0923   1.0000   1
1331.607   1.0296   0.0928   1.0000   1
1331.637   0.9478   0.0893   1.0000   1
1331.667   1.0292   0.0927   1.0000   1
1331.697   0.9734   0.0902   1.0000   1
1331.727   0.9196   0.0877   1.0000   1
1331.757   0.9361   0.0886   1.0000   1
1331.787   0.9845   0.0905   1.0000   1
1331.817   0.9652   0.0896   1.0000   1
1331.847   0.9809   0.0902   1.0000   1
1331.877   1.0794   0.0942   1.0000   1
1331.906   1.0032   0.0910   1.0000   1
1331.936   1.0336   0.0924   1.0000   1
1331.966   0.9888   0.0909   1.0000   1
1331.996   0.9579   0.0896   1.0000   1
1332.026   1.0040   0.0918   1.0000   1
1332.056   1.0396   0.0935   1.0000   1
1332.086   0.9246   0.0886   1.0000   1
1332.116   1.0064   0.0925   1.0000   1
1332.146   1.0071   0.0922   1.0000   1
1332.175   0.9055   0.0875   1.0000   1
1332.205   1.0047   0.0918   1.0000   1
1332.235   0.9336   0.0895   1.0000   1
1332.265   1.0276   0.0926   1.0000   1
1332.295   1.0457   0.0937   1.0000   1
1332.325   1.0355   0.0926   1.0000   1
1332.355   1.0333   0.0922   1.0000   1
1332.385   0.9812   0.0897   1.0000   1
1332.415   0.9442   0.0876   0.9999   1
1332.444   0.9858   0.0891   0.9996   1
1332.474   1.0238   0.0906   0.9983   1
1332.504   0.9333   0.0868   0.9944   1
1332.534   0.9987   0.0894   0.9842   1
1332.564   1.0151   0.0900   0.9630   1
1332.594   0.9808   0.0886   0.9265   1
1332.624   0.8394   0.0826   0.8784   1
1332.654   0.8029   0.0808   0.8302   1
1332.684   0.8066   0.0810   0.7989   1
1332.714   0.7762   0.0795   0.7982   1
1332.743   0.8880   0.0843   0.8274   1
1332.773   0.8930   0.0844   0.8743   1
1332.803   0.8703   0.0836   0.9215   1
1332.833   0.9359   0.0862   0.9540   1
1332.863   0.9830   0.0877   0.9656   1
1332.893   0.8840   0.0839   0.9550   1
1332.923   0.9750   0.0878   0.9234   1
1332.953   0.8809   0.0837   0.8754   1
1332.983   0.8548   0.0824   0.8222   1
1333.012   0.7315   0.0768   0.7786   1
1333.042   0.7756   0.0787   0.7592   1
1333.072   0.7714   0.0784   0.7712   1
1333.102   0.7961   0.0798   0.8095   1
1333.132   0.8825   0.0848   0.8620   1
1333.162   0.9198   0.0868   0.9135   1
1333.192   0.9549   0.0889   0.9531   1
1333.222   1.0071   0.0905   0.9781   1
1333.252   0.9022   0.0854   0.9913   1
1333.282   0.9535   0.0873   0.9970   1
1333.311   0.9771   0.0885   0.9991   1
1333.341   0.9994   0.0887   0.9997   1
1333.371   0.9980   0.0886   0.9999   1
1333.401   0.9364   0.0866   1.0000   1
1333.431   0.9033   0.0852   1.0000   1
1333.461   0.8895   0.0846   1.0000   1
1333.491   1.0017   0.0896   0.9999   1
1333.521   0.9321   0.0862   0.9999   1
1333.551   0.9316   0.0854   0.9998   1
1333.580   0.9515   0.0855   0.9996   1
1333.610   0.9906   0.0870   0.9993   1
1333.640   0.9365   0.0846   0.9986   1
1333.670   0.9328   0.0845   0.9974   1
1333.700   1.0373   0.0887   0.9951   1
1333.730   1.0516   0.0893   0.9911   1
1333.760   0.9372   0.0845   0.9842   1
1333.790   1.0196   0.0877   0.9727   1
1333.820   0.9812   0.0863   0.9544   1
1333.849   1.0520   0.0889   0.9266   1
1333.879   0.9272   0.0837   0.8855   1
1333.909   0.9282   0.0837   0.8278   1
1333.939   0.8195   0.0793   0.7522   1
1333.969   0.6608   0.0717   0.6587   1
1333.999   0.4494   0.0602   0.5509   1
1334.029   0.3442   0.0537   0.4364   1
1334.059   0.2377   0.0458   0.3250   1
1334.089   0.1966   0.0422   0.2260   1
1334.118   0.2153   0.0438   0.1466   1
1334.148   0.1607   0.0383   0.0889   1
1334.178   0.1366   0.0353   0.0505   1
1334.208   0.0729   0.0281   0.0271   1
1334.238   0.0553   0.0238   0.0142   1
1334.268   0.0285   0.0200   0.0074   1
1334.298   0.0409   0.0226   0.0040   1
1334.328   0.0128   0.0151   0.0024   1
1334.358   0.0150   0.0157   0.0016   1
1334.388   0.0167   0.0162   0.0013   1
1334.417   0.0184   0.0165   0.0014   1
1334.447   0.0137   0.0154   0.0018   1
1334.477   0.0253   0.0174   0.0028   1
1334.507   0.0248   0.0174   0.0049   1
1334.537   0.0156   0.0158   0.0092   1
1334.567   0.0332   0.0191   0.0176   1
1334.597   0.0325   0.0204   0.0335   1
1334.627   0.0679   0.0277   0.0614   1
1334.657   0.0363   0.0284   0.1059   1
1334.686   0.1106   0.0322   0.1707   1
1334.716   0.2004   0.0424   0.2571   1
1334.746   0.3327   0.0524   0.3612   1
1334.776   0.5884   0.0681   0.4747   1
1334.806   0.7633   0.0768   0.5880   1
1334.836   0.8500   0.0808   0.6917   1
1334.866   0.9395   0.0850   0.7794   1
1334.896   0.9111   0.0832   0.8489   1
1334.926   0.9075   0.0826   0.9008   1
1334.956   1.0366   0.0874   0.9372   1
1334.985   0.9273   0.0821   0.9614   1
1335.015   1.0255   0.0860   0.9771   1
1335.045   1.0438   0.0866   0.9869   1
1335.075   1.0352   0.0863   0.9927   1
1335.105   0.9652   0.0833   0.9960   1
1335.135   1.0556   0.0867   0.9979   1
1335.165   1.0398   0.0862   0.9989   1
1335.195   1.0284   0.0858   0.9994   1
1335.225   0.9952   0.0844   0.9997   1
1335.254   1.0011   0.0846   0.9998   1
1335.284   1.0390   0.0860   0.9999   1
1335.314   1.0550   0.0866   0.9999   0
1335.344   1.0368   0.0857   1.0000   0
1335.374   0.9824   0.0837   1.0000   0
1335.404   0.9775   0.0835   1.0000   0
1335.434   0.8867   0.0797   1.0000   0
1335.464   0.8909   0.0799   1.0000   0
1335.494   0.9363   0.0816   1.0000   0
1335.524   0.8978   0.0800   1.0000   0
1335.553   0.8222   0.0768   1.0000   0
1335.583   0.8311   0.0771   1.0000   0
1335.613   0.6699   0.0700   1.0000   0
1335.643   0.5915   0.0662   1.0000   0
1335.673   0.3632   0.0530   1.0000   0
1335.703   0.3347   0.0515   1.0000   0
1335.733   0.4206   0.0571   1.0000   0
1335.763   0.5829   0.0662   1.0000   0
1335.793   0.7941   0.0764   1.0000   0
1335.822   0.9053   0.0813   1.0000   0
1335.852   0.8444   0.0786   1.0000   0
1335.882   1.0109   0.0849   1.0000   0
1335.912   0.9212   0.0812   1.0000   0
1335.942   0.9210   0.0812   1.0000   0
1335.972   0.9711   0.0830   1.0000   0
1336.002   1.0007   0.0845   1.0000   0
1336.032   1.0865   0.0879   1.0000   0
1336.062   1.0639   0.0873   1.0000   1
1336.091   1.0899   0.0878   1.0000   1
1336.121   1.0232   0.0851   1.0000   1
1336.151   1.0878   0.0869   1.0000   1
1336.181   0.9545   0.0814   1.0000   1
1336.211   0.9947   0.0829   1.0000   1
1336.241   0.9760   0.0822   1.0000   1
1336.271   0.9969   0.0828   1.0000   1
1336.301   1.0174   0.0835   1.0000   1
1336.331   1.0327   0.0841   1.0000   1
1336.361   0.9931   0.0826   1.0000   1
1336.390   0.9494   0.0808   1.0000   1
1336.420   1.0676   0.0853   1.0000   1
1336.450   1.0419   0.0843   1.0000   1
1336.480   1.0705   0.0852   1.0000   1
1336.510   1.0154   0.0832   1.0000   1
1336.540   1.0347   0.0839   1.0000   1
1336.570   1.0163   0.0832   1.0000   1
1336.600   0.9794   0.0817   1.0000   1
1336.630   1.0125   0.0829   1.0000   1
1336.659   1.0530   0.0840   1.0000   1
1336.689   0.9583   0.0808   1.0000   1
1336.719   1.0070   0.0826   1.0000   1
1336.749   0.9979   0.0822   1.0000   1
1336.779   0.9953   0.0820   1.0000   1
1336.809   1.0560   0.0841   1.0000   1
1336.839   1.0571   0.0842   1.0000   1
1336.869   1.0444   0.0838   1.0000   1
1336.899   0.9945   0.0818   1.0000   1
1336.928   1.0191   0.0827   1.0000   1
1336.958   1.0478   0.0838   1.0000   1
1336.988   1.0115   0.0823   1.0000   1
1337.018   1.0293   0.0827   1.0000   1
1337.048   1.0550   0.0839   1.0000   1
1337.078   1.0374   0.0831   1.0000   1
1337.108   0.9877   0.0813   1.0000   1
1337.138   0.9429   0.0795   1.0000   1
1337.168   1.0227   0.0825   1.0000   1
1337.198   1.0151   0.0819   1.0000   1
1337.227   0.9429   0.0793   1.0000   1
1337.257   0.9808   0.0807   1.0000   1
1337.287   1.0625   0.0837   1.0000   1
1337.317   0.9423   0.0792   1.0000   1
1337.347   1.0250   0.0823   1.0000   1
1337.377   1.0392   0.0828   1.0000   1
1337.407   0.9964   0.0811   1.0000   1
1337.437   1.1052   0.0851   1.0000   1
1337.467   0.9906   0.0807   1.0000   1
1337.496   1.0143   0.0816   1.0000   1
1337.526   0.9616   0.0796   1.0000   1
1337.556   0.9753   0.0798   1.0000   1
1337.586   0.9057   0.0773   1.0000   1
1337.616   0.9494   0.0788   1.0000   1
1337.646   0.9540   0.0790   1.0000   1
1337.676   0.9937   0.0805   1.0000   1
1337.706   0.9736   0.0799   1.0000   1
1337.736   0.9209   0.0777   1.0000   1
1337.765   1.0078   0.0810   1.0000   1
1337.795   1.0115   0.0811   1.0000   1
1337.825   1.0422   0.0822   1.0000   1
1337.855   1.0565   0.0826   1.0000   1
1337.885   0.9936   0.0804   1.0000   1
1337.915   0.9322   0.0778   1.0000   1
1337.945   1.0680   0.0830   1.0000   1
1337.975   0.9438   0.0783   1.0000   1
1338.005   1.0462   0.0821   1.0000   1
1338.035   0.9812   0.0794   1.0000   1
1338.064   0.9602   0.0789   1.0000   1
1338.094   0.9730   0.0793   1.0000   1
1338.124   0.8989   0.0765   1.0000   1
1338.154   0.9754   0.0792   1.0000   1
1338.184   0.9795   0.0794   1.0000   1
1338.214   1.0564   0.0823   1.0000   1
1338.244   1.0154   0.0807   1.0000   1
1338.274   1.0533   0.0821   1.0000   1
1338.304   0.9791   0.0792   1.0000   1
1338.333   0.9702   0.0788   1.0000   1
1338.363   0.9648   0.0786   1.0000   1
1338.393   1.0117   0.0803   1.0000   1
1338.423   1.0641   0.0821   1.0000   1
1338.453   1.0491   0.0817   1.0000   1
1338.483   1.0655   0.0822   1.0000   1
1338.513   0.9003   0.0759   1.0000   1
1338.543   1.0271   0.0807   1.0000   1
1338.573   0.9751   0.0788   1.0000   1
1338.602   0.9516   0.0778   1.0000   1
1338.632   0.9932   0.0793   1.0000   1
1338.662   1.0435   0.0812   1.0000   1
1338.692   1.0144   0.0800   1.0000   1
1338.722   0.9612   0.0780   1.0000   1
1338.752   0.9632   0.0779   1.0000   1
1338.782   0.9951   0.0792   1.0000   1
1338.812   0.9814   0.0787   1.0000   1
1338.842   1.0540   0.0813   1.0000   1
1338.872   0.9859   0.0788   1.0000   1
1338.901   0.9251   0.0764   1.0000   1
1338.931   0.9962   0.0789   1.0000   1
1338.961   0.9376   0.0765   1.0000   1
