# Best-fit normalized data and profile from VoigtFit
# column 1 : Wavelength
# column 2 : Normalized flux
# column 3 : Normalized error
# column 4 : Best-fit profile
# column 5 : Pixel mask, 1=included, 0=excluded
1202.494   0.9399   0.0838   1.0000   1
1202.524   0.9027   0.0825   1.0000   1
1202.554   0.9651   0.0850   1.0000   1
1202.584   0.9281   0.0836   1.0000   1
1202.614   0.9726   0.0852   1.0000   1
1202.644   0.8662   0.0811   1.0000   1
1202.673   0.9645   0.0852   1.0000   1
1202.703   0.9337   0.0838   1.0000   1
1202.733   0.9523   0.0847   1.0000   1
1202.763   0.9132   0.0830   1.0000   1
1202.793   0.8897   0.0821   1.0000   1
1202.823   0.8633   0.0809   1.0000   1
1202.853   0.9676   0.0855   1.0000   1
1202.883   0.8876   0.0823   1.0000   1
1202.913   0.8831   0.0820   1.0000   1
1202.942   0.8889   0.0818   1.0000   1
1202.972   0.9902   0.0866   1.0000   1
1203.002   0.9700   0.0857   1.0000   1
1203.032   1.0203   0.0880   1.0000   1
1203.062   0.9776   0.0862   1.0000   1
1203.092   1.0447   0.0890   1.0000   1
1203.122   0.8763   0.0819   1.0000   1
1203.152   0.9267   0.0840   1.0000   1
1203.182   0.9246   0.0842   1.0000   1
1203.211   0.9795   0.0864   1.0000   1
1203.241   0.9789   0.0866   1.0000   1
1203.271   1.1112   0.0918   1.0000   1
1203.301   0.9241   0.0843   1.0000   1
1203.331   0.9672   0.0859   1.0000   1
1203.361   0.9569   0.0856   1.0000   1
1203.391   1.0030   0.0873   1.0000   1
1203.421   1.0110   0.0878   1.0000   1
1203.451   0.9975   0.0875   1.0000   1
1203.481   0.9170   0.0843   1.0000   1
1203.510   0.9682   0.0863   1.0000   1
1203.540   0.9614   0.0859   1.0000   1
1203.570   0.9602   0.0860   1.0000   1
1203.600   0.9342   0.0848   1.0000   1
1203.630   0.9243   0.0846   1.0000   1
1203.660   0.9854   0.0873   1.0000   1
1203.690   0.9951   0.0877   1.0000   1
1203.720   0.9733   0.0869   1.0000   1
1203.750   1.0525   0.0901   1.0000   1
1203.779   1.0378   0.0894   1.0000   1
1203.809   1.1097   0.0924   1.0000   1
1203.839   1.0547   0.0904   1.0000   1
1203.869   0.9885   0.0876   1.0000   1
1203.899   1.0380   0.0897   1.0000   1
1203.929   1.0447   0.0899   1.0000   1
1203.959   0.9275   0.0852   1.0000   1
1203.989   1.0261   0.0893   1.0000   1
1204.019   0.9403   0.0859   1.0000   1
1204.048   0.9982   0.0882   1.0000   1
1204.078   1.0504   0.0904   1.0000   1
1204.108   0.9705   0.0871   1.0000   1
1204.138   1.0815   0.0917   1.0000   1
1204.168   1.0713   0.0911   1.0000   1
1204.198   1.0293   0.0899   1.0000   1
1204.228   1.0328   0.0899   1.0000   1
1204.258   1.0056   0.0882   1.0000   1
1204.288   1.0772   0.0919   1.0000   1
1204.318   1.0035   0.0889   1.0000   1
1204.347   1.0657   0.0911   1.0000   1
1204.377   1.0099   0.0891   1.0000   1
1204.407   1.0265   0.0896   1.0000   1
1204.437   1.0536   0.0910   1.0000   1
1204.467   0.9947   0.0886   1.0000   1
1204.497   1.0651   0.0913   0.9999   1
1204.527   1.0639   0.0916   0.9999   1
1204.557   0.9855   0.0884   0.9999   1
1204.587   1.1412   0.0946   0.9999   1
1204.616   1.0128   0.0897   0.9996   1
1204.646   1.0879   0.0926   0.9983   1
1204.676   1.0023   0.0894   0.9925   1
1204.706   1.0064   0.0895   0.9742   1
1204.736   0.9692   0.0880   0.9316   1
1204.766   0.8452   0.0822   0.8593   1
1204.796   0.7419   0.0777   0.7728   1
1204.826   0.7341   0.0773   0.7107   1
1204.856   0.6777   0.0748   0.7061   1
1204.885   0.8205   0.0816   0.7605   1
1204.915   0.8318   0.0823   0.8427   1
1204.945   0.8615   0.0834   0.9097   1
1204.975   0.9070   0.0856   0.9294   1
1205.005   0.9689   0.0883   0.8923   1
1205.035   0.7973   0.0809   0.8045   1
1205.065   0.6573   0.0741   0.6891   1
1205.095   0.6023   0.0713   0.5842   1
1205.125   0.5145   0.0656   0.5293   1
1205.154   0.5761   0.0700   0.5447   1
1205.184   0.6012   0.0712   0.6181   1
1205.214   0.6796   0.0754   0.7001   1
1205.244   0.7677   0.0797   0.7174   1
1205.274   0.6056   0.0718   0.6530   1
1205.304   0.6583   0.0743   0.6179   1
1205.334   0.6956   0.0764   0.7047   1
1205.364   0.8058   0.0817   0.8480   1
1205.394   1.0105   0.0907   0.9292   1
1205.424   0.9081   0.0868   0.9081   1
1205.453   0.8131   0.0831   0.8235   1
1205.483   0.7370   0.0803   0.7641   1
1205.513   0.8381   0.0854   0.7933   1
1205.543   0.8927   0.0870   0.8824   1
1205.573   0.8806   0.0861   0.9578   1
1205.603   1.0256   0.0924   0.9898   1
1205.633   0.9827   0.0903   0.9981   1
1205.663   1.0483   0.0938   0.9992   1
1205.693   1.0006   0.0920   0.9988   1
1205.722   1.0270   0.0929   0.9978   1
1205.752   1.0060   0.0920   0.9958   1
1205.782   1.1176   0.0963   0.9920   1
1205.812   1.0767   0.0949   0.9852   1
1205.842   1.0045   0.0918   0.9734   1
1205.872   1.0006   0.0915   0.9538   1
1205.902   1.0010   0.0916   0.9225   1
1205.932   1.0386   0.0929   0.8750   1
1205.962   0.8972   0.0866   0.8078   1
1205.991   0.6930   0.0769   0.7193   1
1206.021   0.5525   0.0696   0.6113   1
1206.051   0.3615   0.0570   0.4903   1
1206.081   0.2914   0.0527   0.3679   1
1206.111   0.2736   0.0507   0.2565   1
1206.141   0.1676   0.0416   0.1657   1
1206.171   0.1512   0.0397   0.0991   1
1206.201   0.1377   0.0372   0.0553   1
1206.231   0.0790   0.0310   0.0298   1
1206.261   0.0375   0.0235   0.0158   1
1206.290   0.0458   0.0252   0.0085   1
1206.320   0.0380   0.0229   0.0050   1
1206.350   0.0151   0.0173   0.0034   1
1206.380   0.0221   0.0201   0.0028   1
1206.410   0.0157   0.0177   0.0030   1
1206.440   0.0097   0.0162   0.0039   1
1206.470   0.0193   0.0182   0.0062   1
1206.500   0.0320   0.0218   0.0109   1
1206.530   0.0247   0.0204   0.0206   1
1206.559   0.0507   0.0270   0.0391   1
1206.589   0.0541   0.0259   0.0718   1
1206.619   0.0805   0.0286   0.1244   1
1206.649   0.1438   0.0403   0.2011   1
1206.679   0.2441   0.0495   0.3014   1
1206.709   0.4319   0.0629   0.4192   1
1206.739   0.6329   0.0759   0.5424   1
1206.769   0.7803   0.0833   0.6591   1
1206.799   0.9243   0.0910   0.7596   1
1206.828   0.9703   0.0927   0.8394   1
1206.858   0.9714   0.0926   0.8974   1
1206.888   1.0735   0.0973   0.9373   1
1206.918   1.0485   0.0958   0.9632   1
1206.948   1.0781   0.0963   0.9792   1
1206.978   1.0480   0.0948   0.9887   1
1207.008   1.0890   0.0963   0.9940   1
1207.038   1.0925   0.0965   0.9968   1
1207.068   1.0435   0.0941   0.9984   1
1207.098   1.1986   0.1007   0.9991   1
1207.127   1.0548   0.0951   0.9995   1
1207.157   1.1031   0.0971   0.9997   1
1207.187   1.0948   0.0968   0.9998   1
1207.217   1.0775   0.0962   0.9998   1
1207.247   1.0997   0.0972   0.9999   1
1207.277   1.0259   0.0941   0.9999   1
1207.307   1.0829   0.0967   0.9999   1
1207.337   1.1198   0.0981   0.9999   1
1207.367   1.0574   0.0955   0.9999   1
1207.396   1.1446   0.0994   0.9999   1
1207.426   1.1643   0.1002   0.9999   1
1207.456   1.1085   0.0980   0.9999   1
1207.486   0.9665   0.0917   0.9999   1
1207.516   1.0249   0.0944   0.9999   1
1207.546   1.0699   0.0964   0.9999   1
1207.576   1.0383   0.0948   0.9999   1
1207.606   1.1356   0.0993   0.9999   1
1207.636   1.0633   0.0965   0.9999   1
1207.665   1.0240   0.0947   0.9999   1
1207.695   1.0640   0.0962   1.0000   1
1207.725   0.9725   0.0926   1.0000   1
1207.755   1.0530   0.0962   1.0000   1
1207.785   1.0634   0.0967   1.0000   1
1207.815   1.0661   0.0974   1.0000   1
1207.845   1.0917   0.0992   1.0000   1
1207.875   1.1226   0.1005   1.0000   1
1207.905   0.9685   0.0945   1.0000   1
1207.935   1.0415   0.0970   1.0000   1
1207.964   1.0927   0.0991   1.0000   1
1207.994   1.1182   0.1001   1.0000   1
1208.024   1.0857   0.0992   1.0000   1
1208.054   0.9807   0.0949   1.0000   1
1208.084   1.0556   0.0984   1.0000   1
1208.114   1.0481   0.0980   1.0000   1
1208.144   1.0512   0.0983   1.0000   1
1208.174   1.1101   0.1004   1.0000   1
1208.204   0.9609   0.0941   1.0000   1
1208.233   1.0457   0.0975   1.0000   1
1208.263   1.0279   0.0966   1.0000   1
1208.293   1.0859   0.0987   1.0000   1
1208.323   0.9858   0.0943   1.0000   1
1208.353   1.0891   0.0987   1.0000   1
1208.383   1.1000   0.0992   1.0000   1
1208.413   1.0906   0.0989   1.0000   1
1208.443   1.0657   0.0977   1.0000   1
1208.473   0.9863   0.0947   1.0000   1
1208.502   1.0484   0.0973   1.0000   1
1208.532   1.0047   0.0956   1.0000   1
1208.562   0.9792   0.0944   1.0000   1
1208.592   0.9954   0.0946   1.0000   1
1208.622   1.0098   0.0960   1.0000   1
1208.652   1.1038   0.0997   1.0000   1
1208.682   1.0624   0.0982   1.0000   1
1208.712   1.0465   0.0977   1.0000   1
1208.742   0.9893   0.0951   1.0000   1
1208.771   0.9951   0.0955   1.0000   1
1208.801   0.9259   0.0924   1.0000   1
1208.831   1.0280   0.0966   1.0000   1
1208.861   1.0431   0.0977   1.0000   1
1208.891   1.1073   0.1007   1.0000   1
1208.921   1.0597   0.0990   1.0000   1
1208.951   1.0136   0.0977   1.0000   1
1208.981   1.0221   0.0983   1.0000   1
1209.011   0.9799   0.0969   1.0000   1
1209.041   1.0142   0.0984   1.0000   1
1209.070   0.9765   0.0969   1.0000   1
1209.100   0.9924   0.0975   1.0000   1
1209.130   0.9491   0.0960   1.0000   1
1209.160   0.9465   0.0956   1.0000   1
1209.190   1.0971   0.1013   1.0000   1
1209.220   0.9424   0.0948   1.0000   1
1209.250   0.9714   0.0949   1.0000   1
1209.280   1.0323   0.0992   1.0000   1
1209.310   0.9366   0.0951   1.0000   1
1209.339   0.9506   0.0955   1.0000   1
1209.369   0.9351   0.0952   1.0000   1
1209.399   0.9950   0.0974   1.0000   1
1209.429   0.9465   0.0932   1.0000   1
1209.459   0.9594   0.0953   1.0000   1
1209.489   0.9833   0.0963   1.0000   1
1209.519   0.9306   0.0932   1.0000   1
1209.549   0.9218   0.0933   1.0000   1
1209.579   0.8907   0.0917   1.0000   1
1209.608   0.9805   0.0959   1.0000   1
1209.638   0.9443   0.0947   1.0000   1
1209.668   1.0474   0.0995   1.0000   1
1209.698   0.8946   0.0923   1.0000   1
1209.728   1.0024   0.0976   1.0000   1
1209.758   0.9377   0.0945   1.0000   1
1209.788   0.9517   0.0952   1.0000   1
1209.818   0.9527   0.0954   1.0000   1
1209.848   0.9268   0.0942   1.0000   1
1209.877   0.9149   0.0936   1.0000   1
1209.907   0.9812   0.0967   1.0000   1
1209.937   0.9827   0.0970   1.0000   1
1209.967   0.9962   0.0979   1.0000   1
1209.997   0.8207   0.0896   1.0000   1
1210.027   0.8968   0.0931   1.0000   1
1210.057   0.8607   0.0916   1.0000   1
1210.087   0.9296   0.0950   1.0000   1
1210.117   0.8763   0.0924   1.0000   1
1210.147   0.9326   0.0953   1.0000   1
1210.176   0.9120   0.0938   1.0000   1
1210.206   0.9015   0.0938   1.0000   1
1210.236   0.9621   0.0956   1.0000   1
1210.266   0.9441   0.0958   1.0000   1
1210.296   0.8969   0.0936   1.0000   1
1210.326   0.9634   0.0972   1.0000   1
1210.356   0.8544   0.0919   1.0000   1
1210.386   0.8658   0.0923   1.0000   1
1210.416   0.8428   0.0914   1.0000   1
1210.445   0.7880   0.0887   1.0000   1
1210.475   0.9378   0.0956   1.0000   1
1210.505   0.9831   0.0980   1.0000   1
