# Best-fit normalized data and profile from VoigtFit
# column 1 : Wavelength
# column 2 : Normalized flux
# column 3 : Normalized error
# column 4 : Best-fit profile
# column 5 : Pixel mask, 1=included, 0=excluded
1190.128   0.6024   0.1322   1.0000   0
1190.158   0.6858   0.1393   1.0000   0
1190.188   0.3823   0.1097   1.0000   0
1190.218   0.2910   0.0994   1.0000   0
1190.248   0.2698   0.0955   1.0000   0
1190.278   0.1205   0.0726   1.0000   0
1190.308   0.1145   0.0673   1.0000   0
1190.337   0.1635   0.0802   1.0000   0
1190.367   0.0638   0.0571   1.0000   0
1190.397   0.0905   0.0657   1.0000   0
1190.427   0.1143   0.0678   1.0000   0
1190.457   0.1615   0.0767   1.0000   0
1190.487   0.2964   0.1003   1.0000   0
1190.517   0.4174   0.1136   1.0000   0
1190.547   0.6668   0.1379   1.0000   0
1190.577   0.8928   0.1561   1.0000   0
1190.606   0.9576   0.1604   1.0000   0
1190.636   0.7639   0.1460   1.0000   0
1190.666   0.8630   0.1539   1.0000   0
1190.696   0.9687   0.1617   1.0000   0
1190.726   0.9883   0.1625   1.0000   0
1190.756   0.9633   0.1598   1.0000   1
1190.786   0.9548   0.1606   1.0000   1
1190.816   1.0968   0.1707   1.0000   1
1190.845   0.9602   0.1613   1.0000   1
1190.875   0.9333   0.1591   1.0000   1
1190.905   0.9396   0.1600   1.0000   1
1190.935   1.0033   0.1644   1.0000   1
1190.965   1.0148   0.1655   1.0000   1
1190.995   0.9513   0.1607   1.0000   1
1191.025   0.8803   0.1555   1.0000   1
1191.055   0.9705   0.1621   1.0000   1
1191.085   1.1168   0.1724   1.0000   1
1191.114   1.0302   0.1676   1.0000   1
1191.144   0.9882   0.1648   1.0000   1
1191.174   0.8822   0.1582   1.0000   1
1191.204   1.0251   0.1679   1.0000   1
1191.234   0.9958   0.1659   1.0000   1
1191.264   0.8551   0.1560   1.0000   1
1191.294   1.0964   0.1738   1.0000   1
1191.324   1.0638   0.1718   1.0000   1
1191.354   1.0199   0.1684   1.0000   1
1191.383   1.0161   0.1682   1.0000   1
1191.413   1.0666   0.1724   1.0000   1
1191.443   0.9457   0.1642   1.0000   1
1191.473   1.0884   0.1736   1.0000   1
1191.503   1.0509   0.1714   1.0000   1
1191.533   1.1307   0.1757   1.0000   1
1191.563   1.1579   0.1765   1.0000   1
1191.593   1.0821   0.1706   1.0000   1
1191.622   1.1811   0.1769   1.0000   1
1191.652   1.0487   0.1677   1.0000   1
1191.682   1.1367   0.1743   1.0000   1
1191.712   1.0223   0.1661   1.0000   1
1191.742   1.0303   0.1669   1.0000   1
1191.772   0.9369   0.1605   1.0000   1
1191.802   1.0526   0.1679   1.0000   1
1191.832   0.9786   0.1627   1.0000   1
1191.862   0.7935   0.1496   1.0000   1
1191.891   0.9609   0.1622   1.0000   1
1191.921   1.1285   0.1739   1.0000   1
1191.951   0.9764   0.1636   1.0000   1
1191.981   0.9783   0.1637   1.0000   1
1192.011   1.0652   0.1698   1.0000   1
1192.041   1.0735   0.1703   1.0000   1
1192.071   1.0754   0.1705   1.0000   1
1192.101   1.1019   0.1725   1.0000   1
1192.131   0.8901   0.1563   1.0000   1
1192.160   1.0821   0.1709   1.0000   1
1192.190   1.0169   0.1666   1.0000   1
1192.220   0.9680   0.1626   0.9999   1
1192.250   1.0607   0.1693   0.9998   1
1192.280   1.0708   0.1704   0.9963   1
1192.310   1.0272   0.1676   0.9702   1
1192.340   0.8881   0.1564   0.8997   1
1192.370   0.8527   0.1549   0.8583   1
1192.399   0.9043   0.1582   0.9154   1
1192.429   1.0455   0.1686   0.9784   1
1192.459   0.9675   0.1628   0.9976   1
1192.489   0.9676   0.1629   0.9998   1
1192.519   0.8948   0.1582   0.9999   1
1192.549   1.0353   0.1681   0.9999   1
1192.579   1.1966   0.1778   0.9999   1
1192.609   0.9814   0.1628   0.9999   1
1192.639   0.9065   0.1591   0.9998   1
1192.668   1.0057   0.1666   0.9998   1
1192.698   1.0344   0.1684   0.9997   1
1192.728   1.0572   0.1702   0.9994   1
1192.758   1.0352   0.1687   0.9986   1
1192.788   0.9975   0.1660   0.9967   1
1192.818   1.0220   0.1674   0.9920   1
1192.848   1.0966   0.1724   0.9818   1
1192.878   0.8615   0.1560   0.9608   1
1192.908   0.9186   0.1603   0.9216   1
1192.937   0.9597   0.1635   0.8555   1
1192.967   0.7281   0.1444   0.7572   1
1192.997   0.6674   0.1404   0.6289   1
1193.027   0.4499   0.1191   0.4838   1
1193.057   0.3407   0.1043   0.3430   1
1193.087   0.2113   0.0882   0.2258   1
1193.117   0.1379   0.0773   0.1415   1
1193.147   0.0867   0.0673   0.0890   1
1193.176   0.0761   0.0612   0.0606   1
1193.206   0.0825   0.0658   0.0493   1
1193.236   0.0614   0.0541   0.0511   1
1193.266   0.0926   0.0635   0.0667   1
1193.296   0.0611   0.0597   0.1012   1
1193.326   0.1266   0.0741   0.1623   1
1193.356   0.2795   0.0992   0.2562   1
1193.386   0.3708   0.1107   0.3816   1
1193.416   0.5826   0.1324   0.5259   1
1193.445   0.7235   0.1467   0.6682   1
1193.475   0.8527   0.1577   0.7887   1
1193.505   0.7454   0.1501   0.8777   1
1193.535   0.8603   0.1591   0.9352   1
1193.565   1.0340   0.1731   0.9683   1
1193.595   1.0152   0.1713   0.9855   1
1193.625   0.8370   0.1580   0.9938   1
1193.655   0.9505   0.1668   0.9974   1
1193.685   0.9301   0.1645   0.9989   1
1193.714   0.9254   0.1641   0.9995   1
1193.744   0.9661   0.1670   0.9997   1
1193.774   0.9414   0.1668   0.9998   1
1193.804   0.8949   0.1622   0.9998   1
1193.834   0.8526   0.1587   0.9999   1
1193.864   0.7512   0.1500   0.9999   1
1193.894   1.0043   0.1694   0.9999   1
1193.924   1.1009   0.1755   0.9999   1
1193.953   0.8702   0.1586   0.9999   1
1193.983   0.9831   0.1664   0.9999   1
1194.013   0.9776   0.1656   0.9999   1
1194.043   1.0535   0.1711   0.9999   1
1194.073   0.9376   0.1627   0.9999   1
1194.103   0.9610   0.1646   0.9999   1
1194.133   0.8647   0.1577   0.9999   1
1194.163   1.0775   0.1729   0.9999   1
1194.193   1.0069   0.1683   1.0000   1
1194.222   0.8467   0.1562   1.0000   1
1194.252   0.9752   0.1669   1.0000   1
1194.282   0.9518   0.1656   1.0000   1
1194.312   1.0443   0.1734   1.0000   1
1194.342   1.0288   0.1719   1.0000   1
1194.372   1.1389   0.1816   1.0000   1
1194.402   1.0084   0.1730   1.0000   1
1194.432   0.9634   0.1685   1.0000   1
1194.462   0.9933   0.1702   1.0000   1
1194.491   1.0122   0.1713   1.0000   1
1194.521   0.9842   0.1693   1.0000   1
1194.551   1.0257   0.1729   1.0000   1
1194.581   0.9546   0.1671   1.0000   1
1194.611   0.9276   0.1657   1.0000   1
1194.641   1.0031   0.1724   1.0000   1
1194.671   0.8680   0.1615   1.0000   1
1194.701   1.1172   0.1795   1.0000   1
1194.730   0.8890   0.1615   1.0000   1
1194.760   1.0160   0.1706   1.0000   1
1194.790   0.9708   0.1663   1.0000   1
1194.820   1.1489   0.1789   1.0000   1
1194.850   1.1030   0.1761   1.0000   1
1194.880   1.0357   0.1706   1.0000   1
1194.910   1.0003   0.1680   1.0000   1
1194.940   0.9880   0.1674   1.0000   1
1194.970   0.9682   0.1661   1.0000   1
1194.999   1.1355   0.1785   1.0000   1
1195.029   1.1382   0.1785   1.0000   1
1195.059   0.8908   0.1606   1.0000   1
1195.089   1.0253   0.1710   1.0000   1
1195.119   1.0241   0.1708   1.0000   1
1195.149   0.9986   0.1689   1.0000   1
1195.179   1.0636   0.1734   1.0000   1
1195.209   1.0184   0.1706   1.0000   1
1195.239   0.9790   0.1676   1.0000   1
1195.268   0.9041   0.1621   1.0000   1
1195.298   1.1156   0.1762   1.0000   1
1195.328   0.8647   0.1572   1.0000   1
1195.358   0.8390   0.1563   1.0000   1
1195.388   1.0664   0.1739   1.0000   1
1195.418   0.9189   0.1632   1.0000   1
1195.448   0.8669   0.1596   1.0000   1
1195.478   1.0165   0.1708   1.0000   1
1195.507   1.0038   0.1699   1.0000   1
1195.537   0.9945   0.1689   1.0000   1
1195.567   1.0541   0.1729   1.0000   1
1195.597   1.0993   0.1768   1.0000   1
1195.627   0.9794   0.1684   1.0000   1
1195.657   1.0729   0.1749   1.0000   1
1195.687   0.9405   0.1656   1.0000   1
1195.717   0.9186   0.1636   1.0000   1
1195.747   1.0855   0.1761   1.0000   1
1195.776   1.0381   0.1729   1.0000   1
1195.806   1.0370   0.1727   1.0000   1
1195.836   0.8900   0.1615   1.0000   1
1195.866   1.1592   0.1810   1.0000   1
1195.896   1.0058   0.1706   1.0000   1
1195.926   1.2167   0.1852   1.0000   1
1195.956   1.0000   0.1700   1.0000   1
1195.986   1.2133   0.1851   1.0000   1
1196.016   1.0664   0.1753   1.0000   1
1196.045   1.1902   0.1838   1.0000   1
1196.075   1.1028   0.1774   1.0000   1
1196.105   1.1798   0.1832   1.0000   1
1196.135   0.9471   0.1668   1.0000   1
1196.165   0.9371   0.1659   1.0000   1
1196.195   1.0229   0.1722   1.0000   1
1196.225   1.0755   0.1762   1.0000   1
1196.255   1.0123   0.1716   1.0000   1
1196.284   1.0171   0.1720   1.0000   1
1196.314   0.9786   0.1694   1.0000   1
1196.344   0.8876   0.1617   1.0000   1
1196.374   1.1793   0.1832   1.0000   1
1196.404   1.0527   0.1740   1.0000   1
1196.434   0.8486   0.1596   1.0000   1
1196.464   0.9515   0.1672   1.0000   1
