# Best-fit normalized data and profile from VoigtFit
# column 1 : Wavelength
# column 2 : Normalized flux
# column 3 : Normalized error
# column 4 : Best-fit profile
# column 5 : Pixel mask, 1=included, 0=excluded
1203.307   1.0058   0.1729   1.0000   1
1203.337   1.0931   0.1795   1.0000   1
1203.367   0.9407   0.1681   1.0000   1
1203.397   0.9640   0.1703   1.0000   1
1203.427   0.8645   0.1626   1.0000   1
1203.457   1.1050   0.1801   1.0000   1
1203.487   0.9716   0.1711   1.0000   1
1203.517   1.0393   0.1763   1.0000   1
1203.546   0.9497   0.1686   1.0000   1
1203.576   0.8717   0.1634   1.0000   1
1203.606   0.9184   0.1675   1.0000   1
1203.636   1.1392   0.1841   1.0000   1
1203.666   0.9988   0.1739   1.0000   1
1203.696   0.9276   0.1679   1.0000   1
1203.726   0.9914   0.1737   1.0000   1
1203.756   1.1389   0.1837   1.0000   1
1203.786   1.1170   0.1830   1.0000   1
1203.815   0.9640   0.1712   1.0000   1
1203.845   0.9343   0.1695   1.0000   1
1203.875   0.9591   0.1713   1.0000   1
1203.905   1.1103   0.1825   1.0000   1
1203.935   1.0404   0.1777   1.0000   1
1203.965   0.9908   0.1744   1.0000   1
1203.995   1.0699   0.1804   1.0000   1
1204.025   1.0705   0.1802   1.0000   1
1204.055   0.9660   0.1717   1.0000   1
1204.084   1.0125   0.1767   1.0000   1
1204.114   0.9578   0.1726   1.0000   1
1204.144   1.0995   0.1828   1.0000   1
1204.174   0.8944   0.1677   1.0000   1
1204.204   1.0575   0.1803   1.0000   1
1204.234   1.1447   0.1864   1.0000   1
1204.264   1.0626   0.1809   1.0000   1
1204.294   0.9947   0.1761   1.0000   1
1204.323   0.9501   0.1730   1.0000   1
1204.353   0.9158   0.1703   1.0000   1
1204.383   0.8972   0.1684   1.0000   1
1204.413   0.9671   0.1741   1.0000   1
1204.443   1.0575   0.1817   1.0000   1
1204.473   1.0021   0.1777   1.0000   1
1204.503   1.0838   0.1837   1.0000   1
1204.533   1.0274   0.1799   1.0000   1
1204.563   1.2302   0.1941   1.0000   1
1204.592   1.0540   0.1815   1.0000   1
1204.622   0.9280   0.1721   1.0000   1
1204.652   1.0964   0.1845   1.0000   1
1204.682   0.9266   0.1719   1.0000   1
1204.712   1.0763   0.1838   1.0000   1
1204.742   0.9115   0.1715   1.0000   1
1204.772   1.1007   0.1860   1.0000   1
1204.802   1.0128   0.1792   1.0000   1
1204.832   0.9964   0.1781   1.0000   1
1204.861   1.1064   0.1860   1.0000   1
1204.891   0.8689   0.1673   1.0000   1
1204.921   0.9483   0.1748   0.9999   1
1204.951   0.8472   0.1674   0.9999   1
1204.981   0.9628   0.1761   0.9999   1
1205.011   0.9878   0.1781   0.9999   1
1205.041   0.8118   0.1646   0.9999   1
1205.071   1.0061   0.1799   0.9999   1
1205.100   0.9233   0.1737   0.9999   1
1205.130   1.0310   0.1824   0.9998   1
1205.160   0.9266   0.1748   0.9990   1
1205.190   0.9059   0.1738   0.9949   1
1205.220   0.7828   0.1644   0.9778   1
1205.250   0.8575   0.1705   0.9272   1
1205.280   0.8720   0.1725   0.8212   1
1205.310   0.7624   0.1648   0.6687   1
1205.340   0.4757   0.1350   0.5256   1
1205.369   0.4782   0.1365   0.4616   1
1205.399   0.4817   0.1346   0.5047   1
1205.429   0.6124   0.1486   0.6155   1
1205.459   0.7355   0.1614   0.7030   1
1205.489   0.7531   0.1612   0.6971   1
1205.519   0.5157   0.1416   0.6179   1
1205.549   0.6188   0.1514   0.5530   1
1205.579   0.6167   0.1507   0.5718   1
1205.609   0.5885   0.1476   0.6715   1
1205.638   0.8376   0.1699   0.7870   1
1205.668   0.8798   0.1727   0.8482   1
1205.698   0.7863   0.1649   0.8334   1
1205.728   0.7611   0.1618   0.7771   1
1205.758   0.8087   0.1673   0.7352   1
1205.788   0.7208   0.1594   0.7446   1
1205.818   0.7544   0.1624   0.8035   1
1205.848   0.9088   0.1761   0.8805   1
1205.877   1.0110   0.1840   0.9428   1
1205.907   0.9518   0.1789   0.9776   1
1205.937   0.9443   0.1795   0.9905   1
1205.967   0.9341   0.1784   0.9910   1
1205.997   0.9395   0.1790   0.9839   1
1206.027   0.9838   0.1828   0.9685   1
1206.057   1.0709   0.1893   0.9407   1
1206.087   0.7944   0.1666   0.8942   1
1206.117   0.9564   0.1812   0.8228   1
1206.146   0.8042   0.1680   0.7228   1
1206.176   0.6074   0.1496   0.5968   1
1206.206   0.3978   0.1276   0.4565   1
1206.236   0.2688   0.1103   0.3198   1
1206.266   0.1658   0.0899   0.2038   1
1206.296   0.1348   0.0848   0.1184   1
1206.326   0.0923   0.0683   0.0635   1
1206.356   0.0578   0.0641   0.0324   1
1206.386   0.0637   0.0696   0.0166   1
1206.415   0.0431   0.0628   0.0092   1
1206.445   0.0302   0.0588   0.0061   1
1206.475   0.0297   0.0531   0.0054   1
1206.505   0.0324   0.0575   0.0065   1
1206.535   0.0260   0.0576   0.0101   1
1206.565   0.0494   0.0624   0.0187   1
1206.595   0.0629   0.0689   0.0368   1
1206.625   0.0452   0.0606   0.0716   1
1206.654   0.1575   0.0898   0.1318   1
1206.684   0.1140   0.0810   0.2233   1
1206.714   0.3589   0.1241   0.3445   1
1206.744   0.6033   0.1522   0.4835   1
1206.774   0.6620   0.1578   0.6223   1
1206.804   0.8345   0.1724   0.7438   1
1206.834   0.7547   0.1663   0.8383   1
1206.864   0.9836   0.1868   0.9046   1
1206.894   1.0038   0.1876   0.9471   1
1206.923   1.0347   0.1907   0.9722   1
1206.953   1.2254   0.2046   0.9861   1
1206.983   1.0471   0.1919   0.9934   1
1207.013   0.9489   0.1846   0.9969   1
1207.043   1.0359   0.1919   0.9986   1
1207.073   0.9640   0.1856   0.9993   1
1207.103   1.0195   0.1909   0.9996   1
1207.133   1.0734   0.1949   0.9998   1
1207.163   1.0136   0.1907   0.9998   1
1207.192   1.0957   0.1972   0.9999   1
1207.222   1.0460   0.1925   0.9999   1
1207.252   1.0762   0.1957   0.9999   1
1207.282   1.1240   0.1991   0.9999   1
1207.312   1.0410   0.1935   0.9999   1
1207.342   1.1462   0.2018   0.9999   1
1207.372   0.9574   0.1865   0.9999   1
1207.402   1.1412   0.2010   0.9999   1
1207.431   1.1061   0.1988   0.9999   1
1207.461   0.8717   0.1804   0.9999   1
1207.491   1.1021   0.1984   0.9999   1
1207.521   1.0055   0.1911   0.9999   1
1207.551   0.9146   0.1839   0.9999   1
1207.581   1.0591   0.1958   0.9999   1
1207.611   1.0539   0.1956   1.0000   1
1207.641   0.9791   0.1901   1.0000   1
1207.671   1.0371   0.1946   1.0000   1
1207.700   0.9920   0.1916   1.0000   1
1207.730   1.3184   0.2157   1.0000   1
1207.760   1.0526   0.1957   1.0000   1
1207.790   0.9255   0.1867   1.0000   1
1207.820   1.0553   0.1973   1.0000   1
1207.850   1.0002   0.1926   1.0000   1
1207.880   1.1634   0.2063   1.0000   1
1207.910   0.8791   0.1846   1.0000   1
1207.940   0.9232   0.1897   1.0000   1
1207.969   0.9854   0.1949   1.0000   1
1207.999   1.1338   0.2090   1.0000   1
1208.029   1.0256   0.2001   1.0000   1
1208.059   0.9244   0.1911   1.0000   1
1208.089   1.0593   0.2026   1.0000   1
1208.119   1.1901   0.2122   1.0000   1
1208.149   0.9829   0.1951   1.0000   1
1208.179   0.9945   0.1954   1.0000   1
1208.208   0.8944   0.1900   1.0000   1
1208.238   0.9493   0.1947   1.0000   1
1208.268   0.9153   0.1909   1.0000   1
1208.298   0.9725   0.1949   1.0000   1
1208.328   1.0700   0.2025   1.0000   1
1208.358   0.9785   0.1944   1.0000   1
1208.388   1.0226   0.1968   1.0000   1
1208.418   1.2589   0.2167   1.0000   1
1208.448   0.9227   0.1889   1.0000   1
1208.477   0.9602   0.1930   1.0000   1
1208.507   0.9000   0.1880   1.0000   1
1208.537   0.9562   0.1918   1.0000   1
1208.567   1.0046   0.1973   1.0000   1
1208.597   1.0770   0.2035   1.0000   1
1208.627   1.0801   0.2035   1.0000   1
1208.657   1.1255   0.2076   1.0000   1
1208.687   0.9915   0.1967   1.0000   1
1208.717   1.0360   0.2011   1.0000   1
1208.746   1.1531   0.2085   1.0000   1
1208.776   1.0013   0.1969   1.0000   1
1208.806   1.1625   0.2112   1.0000   1
1208.836   0.9304   0.1921   1.0000   1
1208.866   1.0166   0.1988   1.0000   1
1208.896   0.9447   0.1941   1.0000   1
1208.926   0.7806   0.1792   1.0000   1
1208.956   0.9856   0.1980   1.0000   1
1208.986   0.9402   0.1935   1.0000   1
1209.015   0.8444   0.1859   1.0000   1
1209.045   1.0270   0.2012   1.0000   1
1209.075   1.0442   0.2033   1.0000   1
1209.105   1.0023   0.1998   1.0000   1
1209.135   1.0054   0.2006   1.0000   1
1209.165   0.9653   0.1969   1.0000   1
1209.195   0.9726   0.1981   1.0000   1
1209.225   0.9815   0.1986   1.0000   1
1209.254   1.0369   0.2026   1.0000   1
1209.284   1.0753   0.2067   1.0000   1
1209.314   0.9709   0.1985   1.0000   1
1209.344   0.9802   0.1987   1.0000   1
1209.374   0.9620   0.1964   1.0000   1
1209.404   0.9376   0.1959   1.0000   1
1209.434   0.9451   0.1977   1.0000   1
1209.464   0.9524   0.1980   1.0000   1
1209.494   1.0162   0.2023   1.0000   1
1209.523   0.8500   0.1884   1.0000   1
1209.553   0.9176   0.1956   1.0000   1
1209.583   0.8551   0.1902   1.0000   1
1209.613   1.0733   0.2090   1.0000   1
1209.643   1.0158   0.2043   1.0000   1
1209.673   0.8813   0.1927   1.0000   1
1209.703   1.0428   0.2053   1.0000   1
