# Best-fit normalized data and profile from VoigtFit
# column 1 : Wavelength
# column 2 : Normalized flux
# column 3 : Normalized error
# column 4 : Best-fit profile
# column 5 : Pixel mask, 1=included, 0=excluded
1186.462   0.9065   0.1822   1.0000   1
1186.492   1.0029   0.1906   1.0000   1
1186.522   1.0135   0.1905   1.0000   1
1186.552   0.9708   0.1871   1.0000   1
1186.582   1.0894   0.1943   1.0000   1
1186.611   1.0903   0.1958   1.0000   1
1186.641   0.9632   0.1859   1.0000   1
1186.671   1.0857   0.1964   1.0000   1
1186.701   1.0141   0.1910   1.0000   1
1186.731   1.1394   0.2004   1.0000   1
1186.761   1.0292   0.1922   1.0000   1
1186.791   1.0623   0.1950   1.0000   1
1186.821   1.0222   0.1911   1.0000   1
1186.850   1.0965   0.1971   1.0000   1
1186.880   0.9827   0.1890   1.0000   1
1186.910   0.9085   0.1827   1.0000   1
1186.940   1.0297   0.1919   1.0000   1
1186.970   1.0713   0.1953   1.0000   1
1187.000   1.0141   0.1907   1.0000   1
1187.030   0.8957   0.1807   1.0000   1
1187.060   0.8592   0.1772   1.0000   1
1187.090   1.1154   0.1992   1.0000   1
1187.119   1.1755   0.2023   1.0000   1
1187.149   1.0293   0.1921   1.0000   1
1187.179   1.0270   0.1920   1.0000   1
1187.209   0.8795   0.1794   1.0000   1
1187.239   0.8732   0.1797   1.0000   1
1187.269   1.0783   0.1958   1.0000   1
1187.299   1.1215   0.1984   1.0000   1
1187.329   0.8845   0.1807   1.0000   1
1187.358   0.9657   0.1864   1.0000   1
1187.388   0.9300   0.1837   1.0000   1
1187.418   1.1008   0.1962   1.0000   1
1187.448   0.9757   0.1869   1.0000   1
1187.478   0.9939   0.1880   1.0000   1
1187.508   1.0333   0.1906   1.0000   1
1187.538   0.9033   0.1798   1.0000   1
1187.568   0.9523   0.1848   1.0000   1
1187.597   1.0056   0.1898   1.0000   1
1187.627   0.9578   0.1854   1.0000   1
1187.657   1.1481   0.2010   1.0000   1
1187.687   0.8981   0.1814   1.0000   1
1187.717   1.0929   0.1958   1.0000   1
1187.747   1.1325   0.1993   1.0000   1
1187.777   1.0255   0.1890   1.0000   1
1187.807   1.0964   0.1960   1.0000   1
1187.837   1.0531   0.1935   1.0000   1
1187.866   0.9992   0.1890   1.0000   1
1187.896   1.0843   0.1960   1.0000   1
1187.926   0.9985   0.1867   1.0000   1
1187.956   1.0428   0.1917   1.0000   1
1187.986   0.9080   0.1806   1.0000   1
1188.016   1.0043   0.1898   1.0000   1
1188.046   1.0937   0.1963   1.0000   1
1188.076   1.0264   0.1914   1.0000   1
1188.105   1.0501   0.1921   1.0000   1
1188.135   1.0786   0.1947   1.0000   1
1188.165   1.0008   0.1880   1.0000   1
1188.195   0.9928   0.1874   1.0000   1
1188.225   0.9753   0.1845   1.0000   1
1188.255   1.1558   0.2000   1.0000   1
1188.285   1.0228   0.1904   1.0000   1
1188.315   0.9683   0.1850   1.0000   1
1188.344   1.0331   0.1914   1.0000   1
1188.374   1.0534   0.1911   1.0000   1
1188.404   1.1403   0.1979   1.0000   1
1188.434   1.0957   0.1957   1.0000   1
1188.464   0.9623   0.1847   1.0000   1
1188.494   0.9788   0.1870   1.0000   1
1188.524   1.0559   0.1933   1.0000   1
1188.554   0.9680   0.1864   1.0000   1
1188.583   1.0991   0.1960   1.0000   1
1188.613   0.9317   0.1827   1.0000   1
1188.643   0.9704   0.1862   1.0000   1
1188.673   1.0137   0.1888   1.0000   1
1188.703   1.0666   0.1933   1.0000   1
1188.733   1.1019   0.1962   1.0000   1
1188.763   1.0169   0.1899   1.0000   1
1188.793   0.8996   0.1804   1.0000   1
1188.823   1.1589   0.2007   1.0000   1
1188.852   0.9351   0.1819   1.0000   1
1188.882   0.8324   0.1739   1.0000   1
1188.912   1.0631   0.1934   1.0000   1
1188.942   0.9916   0.1875   1.0000   1
1188.972   0.9932   0.1859   1.0000   1
1189.002   1.0824   0.1938   1.0000   1
1189.032   1.0304   0.1905   1.0000   1
1189.062   1.0236   0.1889   1.0000   1
1189.091   0.9528   0.1843   1.0000   1
1189.121   1.0520   0.1922   1.0000   1
1189.151   1.0297   0.1904   1.0000   1
1189.181   1.1034   0.1957   1.0000   1
1189.211   1.0491   0.1922   1.0000   1
1189.241   0.9530   0.1850   1.0000   1
1189.271   0.9544   0.1840   1.0000   1
1189.301   0.9816   0.1856   1.0000   1
1189.330   0.9768   0.1841   1.0000   1
1189.360   0.9243   0.1810   1.0000   1
1189.390   1.0460   0.1914   1.0000   1
1189.420   0.9950   0.1874   0.9999   1
1189.450   0.9919   0.1862   0.9999   1
1189.480   0.8504   0.1748   0.9999   1
1189.510   1.0477   0.1909   0.9999   1
1189.540   1.2674   0.2077   0.9999   1
1189.570   1.0286   0.1920   0.9999   1
1189.599   0.9734   0.1866   0.9999   1
1189.629   0.8277   0.1751   0.9999   1
1189.659   1.1276   0.2025   0.9999   1
1189.689   0.9433   0.1865   0.9999   1
1189.719   1.1475   0.2019   0.9999   1
1189.749   0.9738   0.1899   0.9999   1
1189.779   0.9404   0.1859   0.9999   1
1189.809   1.0962   0.1995   0.9999   1
1189.838   0.8371   0.1735   0.9999   1
1189.868   1.0849   0.1980   0.9999   1
1189.898   1.0456   0.1950   0.9998   1
1189.928   0.8946   0.1826   0.9997   1
1189.958   1.1456   0.2015   0.9993   1
1189.988   0.8821   0.1783   0.9977   1
1190.018   1.1639   0.2005   0.9918   1
1190.048   0.9346   0.1823   0.9762   1
1190.077   1.0724   0.1927   0.9449   1
1190.107   0.9178   0.1780   0.8971   1
1190.137   0.8707   0.1750   0.8461   1
1190.167   0.6816   0.1598   0.8130   1
1190.197   0.7569   0.1654   0.8141   1
1190.227   0.7123   0.1630   0.8391   1
1190.257   0.7087   0.1626   0.8562   1
1190.287   0.6501   0.1561   0.8226   1
1190.316   0.6205   0.1533   0.7159   1
1190.346   0.3501   0.1222   0.5452   1
1190.376   0.2750   0.1107   0.3571   1
1190.406   0.1968   0.0974   0.2024   1
1190.436   0.0805   0.0722   0.1072   1
1190.466   0.1010   0.0778   0.0638   1
1190.496   0.0842   0.0724   0.0571   1
1190.526   0.1047   0.0796   0.0859   1
1190.556   0.1260   0.0815   0.1598   1
1190.585   0.1749   0.0924   0.2864   1
1190.615   0.3653   0.1181   0.4420   1
1190.645   0.4381   0.1329   0.5510   1
1190.675   0.4534   0.1352   0.5388   1
1190.705   0.2696   0.1067   0.4087   1
1190.735   0.2243   0.1045   0.2596   1
1190.765   0.2600   0.1071   0.1763   1
1190.795   0.1528   0.0918   0.1840   1
1190.824   0.2650   0.1051   0.2573   1
1190.854   0.3155   0.1132   0.3472   1
1190.884   0.3636   0.1201   0.3991   1
1190.914   0.3919   0.1280   0.4009   1
1190.944   0.3119   0.1170   0.3778   1
1190.974   0.3265   0.1185   0.3617   1
1191.004   0.2808   0.1123   0.3676   1
1191.034   0.3819   0.1273   0.4014   1
1191.063   0.3811   0.1260   0.4607   1
1191.093   0.5474   0.1466   0.5414   1
1191.123   0.6287   0.1548   0.6357   1
1191.153   0.6586   0.1586   0.7311   1
1191.183   0.8726   0.1767   0.8171   1
1191.213   0.8785   0.1730   0.8851   1
1191.243   0.9048   0.1840   0.9338   1
1191.273   0.9181   0.1806   0.9647   1
1191.302   0.9850   0.1890   0.9825   1
1191.332   0.9873   0.1896   0.9920   1
1191.362   1.1471   0.2013   0.9965   1
1191.392   1.0330   0.1905   0.9985   1
1191.422   1.1294   0.2001   0.9994   1
1191.452   1.1399   0.2012   0.9997   1
1191.482   1.0579   0.1960   0.9998   1
1191.512   1.1765   0.2041   0.9998   1
1191.542   1.0320   0.1922   0.9999   1
1191.571   1.0467   0.1917   0.9999   1
1191.601   0.9047   0.1797   0.9999   1
1191.631   0.8238   0.1719   0.9999   1
1191.661   0.8979   0.1785   0.9999   1
1191.691   0.9242   0.1805   0.9999   1
1191.721   1.0056   0.1871   0.9999   1
1191.751   1.0534   0.1892   0.9999   1
1191.781   0.9319   0.1790   0.9999   1
1191.810   0.9759   0.1826   0.9999   1
1191.840   1.0262   0.1882   0.9999   1
1191.870   0.9032   0.1780   0.9999   1
1191.900   1.0080   0.1864   0.9999   1
1191.930   0.9993   0.1855   0.9999   1
1191.960   0.9552   0.1830   0.9999   1
1191.990   0.9788   0.1849   0.9999   1
1192.020   0.8495   0.1741   0.9999   1
1192.049   1.0756   0.1918   0.9999   1
1192.079   0.9682   0.1831   0.9999   1
1192.109   0.9161   0.1790   0.9999   1
1192.139   0.9422   0.1808   0.9999   1
1192.169   1.1812   0.1992   0.9999   1
1192.199   0.9762   0.1836   0.9999   1
1192.229   1.0802   0.1914   0.9999   1
1192.259   0.9059   0.1783   0.9999   1
1192.288   1.1582   0.1989   0.9999   1
1192.318   0.9833   0.1858   0.9999   1
1192.348   1.0106   0.1875   0.9999   1
1192.378   0.8895   0.1789   0.9999   1
1192.408   0.9583   0.1842   0.9999   1
1192.438   1.1502   0.2007   0.9999   1
1192.468   0.9737   0.1867   0.9999   1
1192.498   0.7598   0.1675   0.9998   1
1192.527   0.8769   0.1777   0.9998   1
1192.557   1.0211   0.1876   0.9998   1
1192.587   1.0979   0.1943   0.9998   1
1192.617   1.1565   0.1988   0.9998   1
1192.647   0.8956   0.1779   0.9998   1
1192.677   1.1163   0.1973   0.9998   1
1192.707   1.0414   0.1915   0.9997   1
1192.737   0.8957   0.1792   0.9997   1
1192.766   0.8915   0.1788   0.9997   1
1192.796   1.1103   0.1936   0.9995   1
1192.826   1.0180   0.1847   0.9988   1
1192.856   0.8590   0.1730   0.9960   1
1192.886   1.0583   0.1893   0.9859   1
1192.916   0.8905   0.1763   0.9584   1
1192.946   0.9057   0.1780   0.9025   1
1192.976   0.8058   0.1687   0.8158   1
1193.005   0.6936   0.1590   0.7214   1
1193.035   0.6916   0.1582   0.6550   1
1193.065   0.7395   0.1633   0.6469   1
1193.095   0.7379   0.1636   0.6854   1
1193.125   0.8060   0.1685   0.7233   1
1193.155   0.7818   0.1676   0.6911   1
1193.185   0.6139   0.1512   0.5592   1
1193.215   0.5175   0.1408   0.3624   1
1193.245   0.2872   0.1110   0.1819   1
1193.274   0.1318   0.0801   0.0691   1
1193.304   0.1370   0.0847   0.0205   1
1193.334   0.0690   0.0707   0.0057   1
1193.364   0.0832   0.0730   0.0030   1
1193.394   0.0811   0.0737   0.0075   1
1193.424   0.1111   0.0821   0.0277   1
1193.454   0.1136   0.0739   0.0833   1
1193.484   0.2953   0.1129   0.1872   1
1193.513   0.4482   0.1328   0.2912   1
1193.543   0.4293   0.1314   0.3077   1
1193.573   0.2390   0.0944   0.2136   1
1193.603   0.1347   0.0746   0.1013   1
1193.633   0.0770   0.0726   0.0389   1
1193.663   0.1394   0.0851   0.0314   1
1193.693   0.0859   0.0730   0.0595   1
1193.723   0.0446   0.0617   0.1075   1
1193.752   0.2281   0.0985   0.1448   1
1193.782   0.2811   0.1104   0.1507   1
1193.812   0.2136   0.1020   0.1350   1
1193.842   0.1312   0.0844   0.1206   1
1193.872   0.1386   0.0831   0.1209   1
1193.902   0.1426   0.0892   0.1419   1
1193.932   0.1497   0.0863   0.1883   1
1193.962   0.3037   0.1119   0.2633   1
1193.991   0.5331   0.1406   0.3686   1
1194.021   0.6537   0.1570   0.4963   1
1194.051   0.6384   0.1537   0.6303   1
1194.081   0.7298   0.1625   0.7519   1
1194.111   0.7357   0.1629   0.8483   1
1194.141   0.7963   0.1666   0.9158   1
1194.171   0.8818   0.1743   0.9567   1
1194.201   0.7708   0.1656   0.9794   1
1194.230   0.9264   0.1779   0.9910   1
1194.260   0.9868   0.1821   0.9961   1
1194.290   0.9530   0.1802   0.9984   1
1194.320   0.9779   0.1826   0.9992   1
1194.350   1.0292   0.1844   0.9996   1
1194.380   1.0543   0.1886   0.9997   1
1194.410   1.0331   0.1862   0.9998   1
1194.440   0.9991   0.1835   0.9998   1
1194.469   1.0671   0.1888   0.9998   1
1194.499   1.1497   0.1953   0.9998   1
1194.529   1.0773   0.1903   0.9998   1
1194.559   0.9373   0.1796   0.9998   1
1194.589   0.8613   0.1726   0.9999   1
1194.619   1.1447   0.1954   0.9999   1
1194.649   1.0467   0.1881   0.9999   1
1194.679   0.9342   0.1781   0.9999   1
1194.708   1.0643   0.1890   0.9999   1
1194.738   0.9118   0.1770   0.9999   1
1194.768   1.0926   0.1913   0.9999   1
1194.798   0.9971   0.1844   0.9999   1
1194.828   1.1357   0.1944   0.9999   1
1194.858   1.1364   0.1936   0.9999   1
1194.888   1.0399   0.1871   0.9999   1
1194.918   0.8480   0.1722   0.9999   1
1194.947   1.1173   0.1924   0.9999   1
1194.977   1.0441   0.1873   0.9999   1
1195.007   1.0653   0.1894   0.9999   1
1195.037   1.0984   0.1918   0.9999   1
1195.067   1.0277   0.1864   0.9999   1
1195.097   1.0260   0.1842   0.9999   1
1195.127   0.9132   0.1764   0.9999   1
1195.157   1.0953   0.1909   0.9999   1
1195.187   1.0794   0.1900   0.9999   1
1195.216   0.9459   0.1795   0.9999   1
1195.246   1.1374   0.1942   1.0000   1
1195.276   1.0122   0.1847   1.0000   1
1195.306   1.1604   0.1955   1.0000   1
1195.336   1.1288   0.1930   1.0000   1
1195.366   1.0453   0.1868   1.0000   1
1195.396   1.0884   0.1901   1.0000   1
1195.426   1.0779   0.1892   1.0000   1
1195.455   0.9307   0.1776   1.0000   1
1195.485   1.0757   0.1881   1.0000   1
1195.515   1.0136   0.1838   1.0000   1
1195.545   1.1034   0.1914   1.0000   1
1195.575   1.0747   0.1893   1.0000   1
1195.605   0.9815   0.1818   1.0000   1
1195.635   0.9540   0.1800   1.0000   1
1195.665   1.0430   0.1863   1.0000   1
1195.694   0.9513   0.1794   1.0000   1
1195.724   1.1851   0.1971   1.0000   1
1195.754   1.1042   0.1907   1.0000   1
1195.784   1.0554   0.1869   1.0000   1
1195.814   1.1042   0.1910   1.0000   1
1195.844   1.1278   0.1927   1.0000   1
1195.874   0.9923   0.1829   1.0000   1
1195.904   0.9654   0.1810   1.0000   1
1195.933   0.8498   0.1712   1.0000   1
1195.963   1.0820   0.1895   1.0000   1
1195.993   0.9700   0.1804   1.0000   1
1196.023   1.0707   0.1875   1.0000   1
1196.053   1.0757   0.1890   1.0000   1
1196.083   1.0084   0.1842   1.0000   1
1196.113   0.9493   0.1790   1.0000   1
1196.143   1.0560   0.1860   1.0000   1
1196.172   0.9310   0.1774   1.0000   1
1196.202   0.9790   0.1809   1.0000   1
1196.232   1.0622   0.1881   1.0000   1
1196.262   0.9786   0.1810   1.0000   1
1196.292   0.9424   0.1778   1.0000   1
1196.322   0.8536   0.1687   1.0000   1
1196.352   1.0475   0.1865   1.0000   1
1196.382   1.1659   0.1940   1.0000   1
1196.411   1.0639   0.1874   1.0000   1
1196.441   1.0507   0.1862   1.0000   1
1196.471   1.0448   0.1866   1.0000   1
1196.501   1.0040   0.1826   1.0000   1
1196.531   0.8711   0.1733   1.0000   1
1196.561   0.9477   0.1790   1.0000   1
1196.591   0.9702   0.1808   1.0000   1
1196.621   0.9561   0.1790   1.0000   1
1196.650   1.0591   0.1873   1.0000   1
1196.680   0.9998   0.1834   1.0000   1
1196.710   1.1129   0.1920   1.0000   1
1196.740   0.9622   0.1799   1.0000   1
1196.770   1.0630   0.1873   1.0000   1
1196.800   0.9385   0.1784   1.0000   1
1196.830   1.0948   0.1909   1.0000   1
1196.860   0.8649   0.1720   1.0000   1
1196.889   0.9656   0.1789   1.0000   1
1196.919   0.9828   0.1819   1.0000   1
1196.949   0.8272   0.1690   1.0000   1
1196.979   1.0742   0.1883   1.0000   1
1197.009   0.9770   0.1817   1.0000   1
1197.039   0.9531   0.1797   1.0000   1
1197.069   1.0201   0.1848   1.0000   1
1197.099   0.9384   0.1787   1.0000   1
1197.128   0.9505   0.1794   1.0000   1
1197.158   0.8987   0.1749   1.0000   1
1197.188   1.0733   0.1876   1.0000   1
1197.218   0.7622   0.1635   1.0000   1
1197.248   0.9734   0.1806   1.0000   1
