# Best-fit normalized data and profile from VoigtFit
# column 1 : Wavelength
# column 2 : Normalized flux
# column 3 : Normalized error
# column 4 : Best-fit profile
# column 5 : Pixel mask, 1=included, 0=excluded
1389.123   1.0853   0.2011   1.0000   1
1389.153   0.9298   0.1880   1.0000   1
1389.183   0.9271   0.1888   1.0000   1
1389.213   1.0486   0.1988   1.0000   0
1389.242   1.0377   0.1975   1.0000   0
1389.272   0.9406   0.1884   1.0000   0
1389.302   0.8837   0.1845   1.0000   0
1389.332   1.0289   0.1951   1.0000   0
1389.362   0.9600   0.1910   1.0000   0
1389.392   0.9787   0.1935   1.0000   0
1389.421   1.0356   0.1978   1.0000   0
1389.451   0.9582   0.1911   1.0000   0
1389.481   0.8308   0.1800   1.0000   0
1389.511   0.8534   0.1814   1.0000   0
1389.541   0.7053   0.1681   1.0000   0
1389.571   0.5520   0.1535   1.0000   0
1389.601   0.3727   0.1306   1.0000   0
1389.630   0.2375   0.1123   1.0000   0
1389.660   0.2028   0.1038   1.0000   0
1389.690   0.1191   0.0881   1.0000   0
1389.720   0.1776   0.1020   1.0000   0
1389.750   0.0561   0.0746   1.0000   0
1389.780   0.0906   0.0806   1.0000   0
1389.810   0.1660   0.0993   1.0000   0
1389.839   0.1508   0.0909   1.0000   0
1389.869   0.1836   0.0993   1.0000   0
1389.899   0.2571   0.1096   1.0000   0
1389.929   0.3540   0.1302   1.0000   0
1389.959   0.4981   0.1449   1.0000   0
1389.989   0.7260   0.1707   1.0000   0
1390.019   0.8220   0.1790   1.0000   0
1390.048   0.8282   0.1802   1.0000   0
1390.078   0.9387   0.1886   1.0000   0
1390.108   0.8172   0.1790   1.0000   0
1390.138   1.0235   0.1965   1.0000   0
1390.168   0.9866   0.1937   1.0000   0
1390.198   0.8775   0.1842   1.0000   0
1390.227   0.8109   0.1769   1.0000   0
1390.257   0.9705   0.1900   1.0000   0
1390.287   0.8472   0.1802   1.0000   0
1390.317   1.1005   0.2028   1.0000   0
1390.347   1.0178   0.1963   1.0000   0
1390.377   1.0262   0.1965   1.0000   0
1390.407   1.0165   0.1955   1.0000   0
1390.436   0.8797   0.1840   1.0000   0
1390.466   1.0535   0.1982   1.0000   0
1390.496   1.0745   0.2001   1.0000   1
1390.526   0.8118   0.1784   1.0000   1
1390.556   0.7548   0.1737   1.0000   1
1390.586   1.1555   0.2067   1.0000   1
1390.616   0.8335   0.1801   1.0000   1
1390.645   0.9371   0.1896   1.0000   1
1390.675   0.9700   0.1923   1.0000   1
1390.705   0.9385   0.1898   1.0000   1
1390.735   0.9720   0.1922   1.0000   1
1390.765   0.9980   0.1944   1.0000   1
1390.795   0.9815   0.1926   1.0000   1
1390.825   1.0098   0.1953   1.0000   1
1390.854   0.9808   0.1934   1.0000   1
1390.884   1.0328   0.1978   1.0000   1
1390.914   0.9977   0.1943   1.0000   1
1390.944   0.9521   0.1890   1.0000   1
1390.974   0.9895   0.1929   1.0000   1
1391.004   1.0145   0.1958   1.0000   1
1391.033   0.9961   0.1948   1.0000   1
1391.063   1.1650   0.2076   1.0000   1
1391.093   1.1114   0.2038   1.0000   1
1391.123   1.0434   0.1978   1.0000   1
1391.153   1.0272   0.1972   1.0000   1
1391.183   1.0633   0.2000   1.0000   1
1391.213   1.0659   0.2000   1.0000   1
1391.242   0.9490   0.1899   1.0000   1
1391.272   1.1469   0.2060   1.0000   1
1391.302   1.0037   0.1952   1.0000   1
1391.332   1.0168   0.1951   1.0000   1
1391.362   0.9484   0.1906   1.0000   1
1391.392   0.8457   0.1832   1.0000   1
1391.422   0.9036   0.1878   1.0000   1
1391.451   1.0810   0.2041   1.0000   1
1391.481   1.0293   0.2001   1.0000   1
1391.511   1.0802   0.2040   1.0000   1
1391.541   1.1036   0.2074   1.0000   1
1391.571   1.0460   0.2018   1.0000   1
1391.601   0.8955   0.1890   1.0000   1
1391.631   1.0216   0.1988   1.0000   1
1391.660   1.0508   0.2005   1.0000   1
1391.690   1.0353   0.1986   1.0000   1
1391.720   1.0218   0.1985   1.0000   1
1391.750   0.9892   0.1972   1.0000   1
1391.780   0.9447   0.1925   1.0000   1
1391.810   1.0175   0.1978   1.0000   1
1391.839   1.1054   0.2042   1.0000   1
1391.869   1.0418   0.1970   1.0000   1
1391.899   1.0205   0.1962   1.0000   1
1391.929   0.8441   0.1822   1.0000   1
1391.959   0.9572   0.1916   1.0000   1
1391.989   1.0565   0.1994   1.0000   1
1392.019   1.1188   0.2027   1.0000   1
1392.048   1.0207   0.1972   1.0000   1
1392.078   1.0986   0.2028   1.0000   1
1392.108   1.1712   0.2082   1.0000   1
1392.138   1.0584   0.2005   1.0000   1
1392.168   1.0481   0.1995   1.0000   1
1392.198   0.9961   0.1951   1.0000   1
1392.228   1.2058   0.2109   1.0000   1
1392.257   1.3535   0.2221   1.0000   1
1392.287   0.9243   0.1892   1.0000   1
1392.317   0.8082   0.1778   1.0000   1
1392.347   1.0820   0.2022   1.0000   1
1392.377   1.1766   0.2085   1.0000   1
1392.407   1.1002   0.1999   1.0000   1
1392.437   1.1897   0.2099   1.0000   1
1392.466   1.0355   0.1976   1.0000   1
1392.496   1.0061   0.1957   1.0000   1
1392.526   1.0048   0.1960   1.0000   1
1392.556   1.0333   0.1985   1.0000   1
1392.586   1.0094   0.1961   1.0000   1
1392.616   0.9504   0.1918   1.0000   1
1392.645   0.8879   0.1858   1.0000   1
1392.675   1.0453   0.1999   1.0000   1
1392.705   1.0108   0.1961   1.0000   1
1392.735   1.0650   0.2008   1.0000   1
1392.765   1.0508   0.1999   1.0000   1
1392.795   1.0025   0.1956   1.0000   1
1392.825   1.0275   0.1991   1.0000   1
1392.854   0.8894   0.1880   1.0000   1
1392.884   1.0255   0.2002   1.0000   1
1392.914   1.0126   0.1989   1.0000   1
1392.944   1.0681   0.2041   1.0000   1
1392.974   1.0029   0.1989   1.0000   1
1393.004   1.0634   0.2027   1.0000   1
1393.034   0.8434   0.1833   1.0000   1
1393.063   1.0475   0.2030   1.0000   1
1393.093   0.9360   0.1948   1.0000   1
1393.123   1.1031   0.2084   1.0000   1
1393.153   0.9631   0.1971   1.0000   1
1393.183   0.7868   0.1820   1.0000   1
1393.213   1.1115   0.2075   1.0000   1
1393.243   1.0071   0.1984   1.0000   1
1393.272   0.7344   0.1703   1.0000   1
1393.302   1.0896   0.2034   1.0000   1
1393.332   0.9801   0.1944   1.0000   1
1393.362   1.1110   0.2077   1.0000   1
1393.392   0.9136   0.1900   1.0000   1
1393.422   1.0226   0.1988   1.0000   1
1393.451   0.9278   0.1903   0.9999   1
1393.481   0.9230   0.1892   0.9995   1
1393.511   1.0296   0.1966   0.9980   1
1393.541   1.0157   0.1966   0.9935   1
1393.571   0.8543   0.1833   0.9817   1
1393.601   1.0020   0.1964   0.9568   1
1393.631   1.0170   0.1978   0.9140   1
1393.660   0.8117   0.1797   0.8537   1
1393.690   0.7017   0.1659   0.7884   1
1393.720   0.8924   0.1868   0.7364   1
1393.750   0.6978   0.1689   0.7142   1
1393.780   0.6405   0.1637   0.7280   1
1393.810   0.8364   0.1825   0.7651   1
1393.840   0.8522   0.1839   0.8057   1
1393.869   0.7538   0.1744   0.8299   1
1393.899   0.8554   0.1844   0.8279   1
1393.929   0.8363   0.1831   0.8027   1
1393.959   0.7623   0.1743   0.7632   1
1393.989   0.6770   0.1702   0.7190   1
1394.019   0.6849   0.1656   0.6786   1
1394.048   0.6269   0.1638   0.6474   1
1394.078   0.6478   0.1656   0.6290   1
1394.108   0.6973   0.1694   0.6261   1
1394.138   0.6176   0.1637   0.6381   1
1394.168   0.6545   0.1679   0.6640   1
1394.198   0.6231   0.1643   0.7016   1
1394.228   0.7758   0.1793   0.7472   1
1394.257   0.8910   0.1900   0.7960   1
1394.287   0.7955   0.1799   0.8434   1
1394.317   0.9105   0.1900   0.8825   1
1394.347   0.8550   0.1851   0.8967   1
1394.377   0.8324   0.1824   0.8626   1
1394.407   0.8968   0.1876   0.8048   1
1394.437   0.7276   0.1731   0.8167   1
1394.466   0.9579   0.1922   0.8995   1
1394.496   0.9887   0.1947   0.9683   1
1394.526   1.0781   0.2012   0.9933   1
1394.556   1.1961   0.2087   0.9983   1
1394.586   0.9720   0.1937   0.9994   1
1394.616   1.0575   0.1997   0.9997   1
1394.646   0.9684   0.1941   0.9999   1
1394.675   1.1192   0.2059   0.9999   1
1394.705   0.8472   0.1838   1.0000   1
1394.735   1.1614   0.2082   1.0000   1
1394.765   1.0722   0.2026   1.0000   1
1394.795   0.9288   0.1907   1.0000   1
1394.825   0.9474   0.1918   1.0000   1
1394.854   1.0103   0.1973   1.0000   1
1394.884   1.0854   0.2005   1.0000   1
1394.914   1.0734   0.2014   1.0000   1
1394.944   0.9631   0.1935   1.0000   1
1394.974   0.9173   0.1886   1.0000   1
1395.004   0.8813   0.1867   1.0000   1
1395.034   0.8990   0.1869   1.0000   1
1395.063   0.9122   0.1900   1.0000   1
1395.093   0.9123   0.1905   1.0000   1
1395.123   0.9409   0.1933   1.0000   1
1395.153   0.8689   0.1853   1.0000   1
1395.183   1.0028   0.1973   1.0000   1
1395.213   0.9469   0.1936   1.0000   1
1395.243   0.9938   0.1988   1.0000   1
1395.272   1.0584   0.2039   1.0000   1
1395.302   1.1645   0.2130   1.0000   1
1395.332   0.9842   0.1984   1.0000   1
1395.362   0.9576   0.1947   1.0000   1
1395.392   1.0222   0.1990   1.0000   1
1395.422   0.9168   0.1898   1.0000   1
1395.452   0.9416   0.1923   1.0000   1
1395.481   1.0489   0.2001   1.0000   1
1395.511   0.9628   0.1933   1.0000   1
1395.541   0.8341   0.1824   1.0000   1
1395.571   0.8686   0.1857   1.0000   1
1395.601   1.0844   0.2037   1.0000   1
1395.631   1.0475   0.2005   1.0000   1
1395.660   1.0092   0.1970   1.0000   1
1395.690   0.8957   0.1866   1.0000   1
1395.720   1.0353   0.1997   1.0000   1
1395.750   1.0961   0.2038   1.0000   1
1395.780   1.0143   0.1978   1.0000   1
1395.810   1.1492   0.2079   1.0000   1
1395.840   0.9594   0.1920   1.0000   1
1395.869   1.0114   0.1970   1.0000   1
1395.899   0.9456   0.1920   1.0000   1
1395.929   1.0454   0.2005   1.0000   1
1395.959   1.0950   0.2039   1.0000   1
1395.989   1.0397   0.1998   1.0000   1
1396.019   0.9071   0.1883   1.0000   1
1396.049   0.8930   0.1874   1.0000   1
1396.078   0.8894   0.1874   1.0000   1
1396.108   1.0641   0.2009   1.0000   1
1396.138   1.0072   0.1967   1.0000   1
1396.168   0.9412   0.1921   1.0000   1
1396.198   0.9708   0.1937   1.0000   1
1396.228   1.1496   0.2088   1.0000   1
1396.258   1.0793   0.2031   1.0000   1
1396.287   1.1187   0.2061   1.0000   1
1396.317   1.0033   0.1963   1.0000   1
1396.347   0.9485   0.1921   1.0000   1
1396.377   1.0737   0.2026   1.0000   1
1396.407   0.9673   0.1935   1.0000   1
1396.437   1.0434   0.2001   1.0000   1
1396.466   0.9739   0.1941   1.0000   1
1396.496   1.1059   0.2051   1.0000   1
1396.526   0.8973   0.1878   1.0000   1
1396.556   1.0389   0.1996   1.0000   1
1396.586   1.1685   0.2093   1.0000   1
1396.616   0.9862   0.1952   1.0000   1
1396.646   0.9777   0.1947   1.0000   1
1396.675   0.9836   0.1955   1.0000   1
1396.705   0.9548   0.1925   1.0000   1
1396.735   0.9828   0.1951   1.0000   1
1396.765   0.9601   0.1931   1.0000   1
1396.795   0.9379   0.1903   1.0000   1
1396.825   1.1300   0.2057   1.0000   1
1396.855   1.2545   0.2161   1.0000   1
1396.884   1.0240   0.1962   1.0000   1
1396.914   1.0244   0.1989   1.0000   1
1396.944   0.9669   0.1945   1.0000   1
1396.974   0.9633   0.1938   1.0000   1
1397.004   1.0267   0.1995   1.0000   1
1397.034   0.9977   0.1964   1.0000   1
1397.064   0.9926   0.1945   1.0000   1
1397.093   1.0551   0.2017   1.0000   1
1397.123   1.0919   0.2041   1.0000   1
1397.153   1.0236   0.1992   1.0000   1
1397.183   0.9023   0.1881   1.0000   1
1397.213   0.9292   0.1905   1.0000   1
1397.243   1.0515   0.2012   1.0000   1
1397.272   1.0405   0.1996   1.0000   1
1397.302   0.9364   0.1918   1.0000   1
1397.332   0.9606   0.1940   1.0000   1
1397.362   1.0650   0.2018   1.0000   1
1397.392   1.2254   0.2143   1.0000   1
1397.422   0.8601   0.1847   1.0000   1
1397.452   0.9766   0.1950   1.0000   1
1397.481   1.1845   0.2111   1.0000   1
1397.511   1.0096   0.1979   1.0000   1
1397.541   1.0094   0.1968   1.0000   1
1397.571   1.1485   0.2087   1.0000   1
1397.601   0.9715   0.1942   1.0000   1
1397.631   0.9289   0.1917   1.0000   1
1397.661   0.8858   0.1865   1.0000   1
1397.690   1.0255   0.1966   1.0000   1
1397.720   0.8942   0.1881   1.0000   1
1397.750   0.8980   0.1887   1.0000   1
1397.780   0.9795   0.1955   1.0000   1
1397.810   1.0464   0.2010   1.0000   1
1397.840   1.1003   0.2058   1.0000   1
1397.870   0.8798   0.1873   1.0000   1
1397.899   1.1749   0.2088   1.0000   1
1397.929   0.9043   0.1880   1.0000   1
1397.959   1.0722   0.2020   1.0000   1
1397.989   0.9561   0.1939   1.0000   1
1398.019   0.9244   0.1907   1.0000   1
1398.049   1.0057   0.1978   1.0000   1
1398.078   0.9862   0.1968   1.0000   1
1398.108   1.1519   0.2091   1.0000   1
1398.138   1.1254   0.2063   1.0000   1
1398.168   1.2503   0.2166   1.0000   1
1398.198   0.9858   0.1962   1.0000   1
1398.228   0.9329   0.1913   1.0000   1
1398.258   1.1192   0.2070   1.0000   1
1398.287   0.7936   0.1774   1.0000   1
1398.317   0.8820   0.1875   1.0000   1
1398.347   0.9709   0.1949   1.0000   1
1398.377   1.0162   0.1990   1.0000   1
