# Best-fit normalized data and profile from VoigtFit
# column 1 : Wavelength
# column 2 : Normalized flux
# column 3 : Normalized error
# column 4 : Best-fit profile
# column 5 : Pixel mask, 1=included, 0=excluded
1202.493   0.9997   0.0498   1.0000   1
1202.523   0.9608   0.0489   1.0000   1
1202.553   0.9941   0.0496   1.0000   1
1202.582   0.9843   0.0494   1.0000   1
1202.612   0.9610   0.0489   1.0000   1
1202.642   0.9740   0.0492   1.0000   1
1202.672   0.9866   0.0495   1.0000   1
1202.702   1.0156   0.0502   1.0000   1
1202.732   0.9641   0.0495   1.0000   1
1202.762   0.9857   0.0502   1.0000   1
1202.792   0.9894   0.0506   1.0000   1
1202.821   0.9424   0.0493   1.0000   1
1202.851   0.9518   0.0492   1.0000   1
1202.881   0.9776   0.0497   1.0000   1
1202.911   0.9661   0.0494   1.0000   1
1202.941   0.9808   0.0499   1.0000   1
1202.971   1.0063   0.0506   1.0000   1
1203.001   1.0225   0.0511   1.0000   1
1203.031   0.9326   0.0488   1.0000   1
1203.060   0.9867   0.0502   1.0000   1
1203.090   1.0259   0.0510   1.0000   1
1203.120   0.9953   0.0502   1.0000   1
1203.150   1.0075   0.0504   1.0000   1
1203.180   1.0093   0.0504   1.0000   1
1203.210   1.0169   0.0504   1.0000   1
1203.240   1.0479   0.0511   1.0000   1
1203.270   0.9802   0.0494   1.0000   1
1203.299   1.0221   0.0504   1.0000   1
1203.329   0.9976   0.0498   1.0000   1
1203.359   1.0022   0.0499   1.0000   1
1203.389   0.9680   0.0491   1.0000   1
1203.419   1.0084   0.0501   1.0000   1
1203.449   1.0493   0.0510   1.0000   1
1203.479   1.0507   0.0511   1.0000   1
1203.509   1.0083   0.0501   1.0000   1
1203.538   0.9878   0.0496   1.0000   1
1203.568   0.9295   0.0482   1.0000   1
1203.598   0.9510   0.0487   1.0000   1
1203.628   0.9848   0.0496   1.0000   1
1203.658   0.9741   0.0493   1.0000   1
1203.688   1.0080   0.0501   1.0000   1
1203.718   0.9918   0.0497   1.0000   1
1203.748   1.0099   0.0502   1.0000   1
1203.777   1.0105   0.0502   1.0000   1
1203.807   0.9750   0.0494   1.0000   1
1203.837   1.0007   0.0500   1.0000   1
1203.867   0.9583   0.0489   1.0000   1
1203.897   0.9933   0.0498   1.0000   1
1203.927   0.9989   0.0499   1.0000   1
1203.957   1.0094   0.0502   1.0000   1
1203.986   1.0108   0.0502   1.0000   1
1204.016   0.9897   0.0497   1.0000   1
1204.046   0.9763   0.0494   1.0000   1
1204.076   0.9933   0.0498   1.0000   1
1204.106   1.0384   0.0509   1.0000   1
1204.136   0.9736   0.0493   1.0000   1
1204.166   0.9981   0.0499   1.0000   1
1204.196   1.0496   0.0512   1.0000   1
1204.225   1.0107   0.0503   1.0000   1
1204.255   1.0413   0.0510   1.0000   1
1204.285   1.0200   0.0505   1.0000   1
1204.315   0.9873   0.0497   1.0000   1
1204.345   0.9972   0.0500   1.0000   1
1204.375   1.0010   0.0501   1.0000   1
1204.405   1.0090   0.0502   1.0000   1
1204.435   0.9687   0.0493   1.0000   1
1204.464   0.9683   0.0492   1.0000   1
1204.494   0.9715   0.0494   1.0000   1
1204.524   0.9916   0.0499   1.0000   1
1204.554   1.0188   0.0505   1.0000   1
1204.584   1.0128   0.0504   1.0000   1
1204.614   1.0077   0.0502   1.0000   1
1204.644   0.9765   0.0495   1.0000   1
1204.674   1.0339   0.0509   1.0000   1
1204.703   0.9825   0.0497   1.0000   1
1204.733   1.0082   0.0503   1.0000   1
1204.763   1.0219   0.0506   1.0000   1
1204.793   1.0212   0.0506   1.0000   1
1204.823   0.9654   0.0493   1.0000   1
1204.853   1.0007   0.0501   1.0000   1
1204.883   0.9869   0.0498   1.0000   1
1204.913   1.0195   0.0505   1.0000   1
1204.942   1.0443   0.0512   1.0000   1
1204.972   1.0763   0.0519   1.0000   1
1205.002   1.0181   0.0506   1.0000   1
1205.032   0.9533   0.0490   1.0000   1
1205.062   0.9985   0.0501   1.0000   1
1205.092   1.0466   0.0512   1.0000   1
1205.122   1.0784   0.0520   1.0000   1
1205.152   1.0389   0.0511   1.0000   1
1205.181   1.0641   0.0517   1.0000   1
1205.211   1.0361   0.0510   1.0000   1
1205.241   1.0599   0.0516   1.0000   1
1205.271   1.0723   0.0519   1.0000   1
1205.301   1.0181   0.0506   1.0000   1
1205.331   0.9873   0.0499   1.0000   1
1205.361   1.0614   0.0517   1.0000   1
1205.391   1.0616   0.0520   1.0000   1
1205.420   1.0072   0.0511   1.0000   1
1205.450   0.9890   0.0510   1.0000   1
1205.480   0.9802   0.0506   1.0000   1
1205.510   1.0072   0.0509   1.0000   1
1205.540   0.9965   0.0506   1.0000   1
1205.570   0.9812   0.0501   1.0000   1
1205.600   1.0452   0.0518   1.0000   1
1205.630   1.0195   0.0514   1.0000   1
1205.659   0.9864   0.0506   1.0000   1
1205.689   1.0170   0.0513   1.0000   1
1205.719   0.9823   0.0505   1.0000   1
1205.749   1.0561   0.0521   0.9999   1
1205.779   0.9242   0.0489   0.9999   1
1205.809   0.9515   0.0495   0.9999   1
1205.839   1.0414   0.0516   0.9999   1
1205.869   0.9894   0.0503   0.9999   1
1205.898   1.0147   0.0507   0.9999   1
1205.928   1.0184   0.0507   0.9999   1
1205.958   0.9868   0.0500   0.9999   1
1205.988   1.0547   0.0516   0.9998   1
1206.018   0.9890   0.0501   0.9995   1
1206.048   1.0034   0.0504   0.9988   1
1206.078   0.9334   0.0487   0.9971   1
1206.108   1.0043   0.0504   0.9931   1
1206.137   0.9258   0.0485   0.9844   1
1206.167   0.9806   0.0498   0.9668   1
1206.197   0.9347   0.0487   0.9343   1
1206.227   0.8619   0.0469   0.8785   1
1206.257   0.7984   0.0452   0.7941   1
1206.287   0.6416   0.0408   0.6807   1
1206.317   0.5509   0.0380   0.5466   1
1206.346   0.4285   0.0338   0.4082   1
1206.376   0.2806   0.0278   0.2850   1
1206.406   0.1844   0.0232   0.1894   1
1206.436   0.1405   0.0205   0.1241   1
1206.466   0.0869   0.0168   0.0851   1
1206.496   0.0675   0.0152   0.0658   1
1206.526   0.0614   0.0145   0.0619   1
1206.556   0.0754   0.0159   0.0719   1
1206.585   0.0929   0.0173   0.0983   1
1206.615   0.1216   0.0194   0.1468   1
1206.645   0.1999   0.0239   0.2221   1
1206.675   0.3647   0.0314   0.3224   1
1206.705   0.5013   0.0364   0.4322   1
1206.735   0.5160   0.0369   0.5243   1
1206.765   0.5299   0.0374   0.5769   1
1206.795   0.5810   0.0390   0.5896   1
1206.824   0.6097   0.0399   0.5847   1
1206.854   0.6341   0.0407   0.5900   1
1206.884   0.5696   0.0387   0.6162   1
1206.914   0.6381   0.0408   0.6549   1
1206.944   0.7240   0.0433   0.6912   1
1206.974   0.7244   0.0433   0.7167   1
1207.004   0.7353   0.0436   0.7345   1
1207.034   0.7170   0.0431   0.7531   1
1207.063   0.7649   0.0445   0.7784   1
1207.093   0.8512   0.0467   0.8113   1
1207.123   0.8585   0.0469   0.8489   1
1207.153   0.8971   0.0479   0.8868   1
1207.183   0.9308   0.0488   0.9208   1
1207.213   0.8816   0.0476   0.9483   1
1207.243   0.9314   0.0488   0.9686   1
1207.273   1.0131   0.0508   0.9823   1
1207.302   1.0106   0.0508   0.9907   1
1207.332   1.0449   0.0516   0.9954   1
1207.362   1.0489   0.0517   0.9978   1
1207.392   0.9848   0.0502   0.9990   1
1207.422   1.0279   0.0512   0.9996   1
1207.452   1.0316   0.0513   0.9998   1
1207.482   1.0801   0.0525   0.9999   1
1207.512   1.0641   0.0521   0.9999   1
1207.541   1.0378   0.0515   1.0000   1
1207.571   0.9943   0.0505   1.0000   1
1207.601   1.0488   0.0517   1.0000   1
1207.631   1.0227   0.0513   1.0000   1
1207.661   1.0370   0.0520   1.0000   1
1207.691   1.0467   0.0526   1.0000   1
1207.721   1.0353   0.0525   1.0000   1
1207.751   0.9843   0.0510   1.0000   1
1207.780   0.9463   0.0498   1.0000   1
1207.810   1.0078   0.0514   1.0000   1
1207.840   0.9894   0.0512   1.0000   1
1207.870   1.0063   0.0519   1.0000   1
1207.900   0.9681   0.0511   1.0000   1
1207.930   0.9775   0.0512   1.0000   1
1207.960   0.9878   0.0514   1.0000   1
1207.990   0.9958   0.0516   1.0000   1
1208.019   0.9879   0.0513   1.0000   1
1208.049   0.9899   0.0513   1.0000   1
1208.079   0.9940   0.0514   1.0000   1
1208.109   0.9944   0.0514   1.0000   1
1208.139   0.9994   0.0514   1.0000   1
1208.169   0.9763   0.0508   1.0000   1
1208.199   1.0058   0.0514   1.0000   1
1208.229   1.0046   0.0512   1.0000   1
1208.258   0.9939   0.0508   1.0000   1
1208.288   0.9492   0.0496   1.0000   1
1208.318   0.9921   0.0506   1.0000   1
1208.348   1.0030   0.0509   1.0000   1
1208.378   0.9785   0.0503   1.0000   1
1208.408   1.0033   0.0509   1.0000   1
1208.438   0.9522   0.0496   1.0000   1
1208.467   0.9925   0.0506   1.0000   1
1208.497   1.0274   0.0514   1.0000   1
1208.527   1.0266   0.0514   1.0000   1
1208.557   0.9967   0.0507   1.0000   1
1208.587   0.9737   0.0502   1.0000   1
1208.617   1.0003   0.0508   1.0000   1
1208.647   1.0447   0.0519   1.0000   1
1208.677   1.0124   0.0512   1.0000   1
1208.706   1.0533   0.0521   1.0000   1
1208.736   1.0024   0.0509   1.0000   1
1208.766   1.0100   0.0511   1.0000   1
1208.796   1.0241   0.0515   1.0000   1
1208.826   1.0086   0.0511   1.0000   1
1208.856   1.0221   0.0514   1.0000   1
1208.886   1.0141   0.0512   1.0000   1
1208.916   0.9681   0.0501   1.0000   1
1208.945   0.9888   0.0507   1.0000   1
1208.975   0.9642   0.0501   1.0000   1
1209.005   1.0191   0.0514   1.0000   1
1209.035   0.9498   0.0498   1.0000   1
1209.065   1.0506   0.0524   1.0000   1
1209.095   1.0007   0.0515   1.0000   1
1209.125   1.0052   0.0518   1.0000   1
1209.155   1.0596   0.0531   1.0000   1
1209.184   1.0111   0.0520   1.0000   1
1209.214   1.0154   0.0522   1.0000   1
1209.244   0.9467   0.0505   1.0000   1
1209.274   0.9878   0.0515   1.0000   1
1209.304   0.9991   0.0518   1.0000   1
1209.334   0.9647   0.0507   1.0000   1
1209.364   1.0001   0.0514   1.0000   1
1209.394   0.9843   0.0512   1.0000   1
1209.423   1.0026   0.0517   1.0000   1
1209.453   0.9910   0.0516   1.0000   1
1209.483   1.0276   0.0525   1.0000   1
1209.513   1.0104   0.0519   1.0000   1
1209.543   0.9837   0.0512   1.0000   1
1209.573   0.9900   0.0510   1.0000   1
1209.603   1.0221   0.0517   1.0000   1
1209.633   1.0105   0.0514   1.0000   1
1209.662   1.0385   0.0520   1.0000   1
1209.692   0.9900   0.0509   1.0000   1
1209.722   1.0354   0.0520   1.0000   1
1209.752   1.0144   0.0514   1.0000   1
1209.782   0.9850   0.0507   1.0000   1
1209.812   1.0400   0.0521   1.0000   1
1209.842   1.0342   0.0520   1.0000   1
1209.872   0.9920   0.0510   1.0000   1
1209.901   0.9837   0.0508   1.0000   1
1209.931   0.9953   0.0511   1.0000   1
1209.961   1.0427   0.0522   1.0000   1
1209.991   1.0051   0.0513   1.0000   1
1210.021   0.9257   0.0493   1.0000   1
1210.051   1.0080   0.0514   1.0000   1
1210.081   1.0000   0.0512   1.0000   1
1210.111   0.9774   0.0507   1.0000   1
1210.140   0.9651   0.0504   1.0000   1
1210.170   0.9498   0.0500   1.0000   1
1210.200   0.9490   0.0499   1.0000   1
1210.230   0.9840   0.0508   1.0000   1
1210.260   0.9537   0.0501   1.0000   1
1210.290   1.0292   0.0520   1.0000   1
1210.320   0.9690   0.0505   1.0000   1
1210.350   0.9741   0.0507   1.0000   1
1210.379   1.0026   0.0514   1.0000   1
1210.409   0.9713   0.0506   1.0000   1
1210.439   0.9836   0.0509   1.0000   1
1210.469   0.9513   0.0501   1.0000   1
1210.499   0.9565   0.0503   1.0000   1
