# Best-fit normalized data and profile from VoigtFit
# column 1 : Wavelength
# column 2 : Normalized flux
# column 3 : Normalized error
# column 4 : Best-fit profile
# column 5 : Pixel mask, 1=included, 0=excluded
1543.032   0.9803   0.0655   1.0000   1
1543.068   0.9290   0.0638   1.0000   1
1543.105   0.8651   0.0618   1.0000   1
1543.142   0.9264   0.0639   1.0000   1
1543.178   0.9722   0.0653   1.0000   1
1543.215   0.9607   0.0650   1.0000   1
1543.252   0.9638   0.0651   1.0000   1
1543.289   0.9599   0.0650   1.0000   1
1543.325   1.0064   0.0665   1.0000   1
1543.362   1.0000   0.0663   1.0000   1
1543.399   1.0040   0.0665   1.0000   1
1543.435   0.9681   0.0653   1.0000   1
1543.472   1.0040   0.0666   1.0000   1
1543.509   1.0372   0.0676   1.0000   1
1543.546   0.9752   0.0657   1.0000   1
1543.582   1.0919   0.0693   1.0000   1
1543.619   1.1101   0.0698   1.0000   1
1543.656   1.0612   0.0684   1.0000   1
1543.693   0.9945   0.0664   1.0000   1
1543.729   1.0542   0.0683   1.0000   1
1543.766   0.9907   0.0663   1.0000   1
1543.803   1.0121   0.0670   1.0000   1
1543.839   0.9943   0.0665   1.0000   1
1543.876   0.9586   0.0654   1.0000   1
1543.913   0.9037   0.0636   1.0000   1
1543.949   1.0096   0.0670   1.0000   1
1543.986   1.0753   0.0691   1.0000   1
1544.023   0.9288   0.0645   1.0000   1
1544.060   1.0403   0.0681   1.0000   1
1544.096   0.9581   0.0656   1.0000   1
1544.133   0.9620   0.0656   1.0000   1
1544.170   0.9268   0.0646   1.0000   1
1544.207   1.0289   0.0678   1.0000   1
1544.243   1.0513   0.0685   1.0000   1
1544.280   1.0605   0.0689   1.0000   1
1544.317   0.9906   0.0668   1.0000   1
1544.353   0.9613   0.0658   1.0000   1
1544.390   0.9415   0.0652   1.0000   1
1544.427   0.8640   0.0627   1.0000   1
1544.463   0.9019   0.0640   1.0000   1
1544.500   1.0100   0.0675   1.0000   1
1544.537   0.9319   0.0650   1.0000   1
1544.574   0.9883   0.0668   1.0000   1
1544.610   0.9113   0.0644   1.0000   1
1544.647   0.9441   0.0655   1.0000   1
1544.684   0.9558   0.0659   1.0000   1
1544.720   0.9704   0.0664   1.0000   1
1544.757   1.0063   0.0676   1.0000   1
1544.794   1.0224   0.0681   1.0000   1
1544.831   0.9789   0.0667   1.0000   1
1544.867   1.0246   0.0683   1.0000   1
1544.904   0.9833   0.0669   1.0000   1
1544.941   1.0094   0.0677   1.0000   1
1544.977   0.9447   0.0657   1.0000   1
1545.014   0.8543   0.0628   1.0000   1
1545.051   0.8533   0.0628   1.0000   1
1545.088   0.9259   0.0653   1.0000   1
1545.124   0.9776   0.0669   1.0000   1
1545.161   0.9925   0.0675   1.0000   1
1545.198   1.0396   0.0689   1.0000   1
1545.234   0.9926   0.0675   1.0000   1
1545.271   1.0516   0.0694   1.0000   1
1545.308   0.9946   0.0676   1.0000   1
1545.345   1.0392   0.0690   1.0000   1
1545.381   0.9375   0.0658   1.0000   1
1545.418   1.0650   0.0699   1.0000   1
1545.455   1.0163   0.0684   1.0000   1
1545.491   1.0453   0.0694   1.0000   1
1545.528   1.0017   0.0680   1.0000   1
1545.565   1.0591   0.0698   1.0000   1
1545.602   1.0696   0.0702   1.0000   1
1545.638   1.0870   0.0708   1.0000   1
1545.675   0.9910   0.0678   1.0000   1
1545.712   1.0324   0.0691   1.0000   1
1545.748   1.0546   0.0699   1.0000   1
1545.785   1.1629   0.0731   1.0000   1
1545.822   1.0806   0.0707   1.0000   1
1545.859   1.0301   0.0692   1.0000   1
1545.895   1.0290   0.0692   1.0000   1
1545.932   1.0202   0.0689   1.0000   1
1545.969   1.0938   0.0712   1.0000   1
1546.005   1.0477   0.0698   1.0000   1
1546.042   1.0766   0.0707   1.0000   1
1546.079   1.0358   0.0695   1.0000   1
1546.116   0.9816   0.0679   1.0000   1
1546.152   1.0460   0.0699   1.0000   1
1546.189   1.0483   0.0700   1.0000   1
1546.226   1.0132   0.0689   1.0000   1
1546.262   1.0093   0.0688   1.0000   1
1546.299   0.9991   0.0686   1.0000   1
1546.336   1.0487   0.0702   1.0000   1
1546.373   1.0370   0.0698   1.0000   1
1546.409   1.0786   0.0712   1.0000   1
1546.446   1.0455   0.0701   1.0000   1
1546.483   1.0566   0.0705   1.0000   1
1546.519   1.0329   0.0698   1.0000   1
1546.556   1.0418   0.0701   1.0000   1
1546.593   0.9693   0.0678   1.0000   1
1546.630   1.0487   0.0704   1.0000   1
1546.666   1.0564   0.0707   1.0000   1
1546.703   1.0250   0.0697   1.0000   1
1546.740   1.0663   0.0710   1.0000   1
1546.776   1.0128   0.0694   1.0000   1
1546.813   1.0379   0.0702   1.0000   1
1546.850   1.0194   0.0697   1.0000   1
1546.887   1.0721   0.0714   1.0000   1
1546.923   1.0567   0.0709   1.0000   1
1546.960   1.0572   0.0709   1.0000   1
1546.997   1.0583   0.0710   1.0000   1
1547.033   1.1173   0.0729   1.0000   1
1547.070   0.9607   0.0680   1.0000   1
1547.107   1.0022   0.0694   0.9999   1
1547.144   0.9963   0.0692   0.9999   1
1547.180   1.0776   0.0718   0.9999   1
1547.217   1.0270   0.0702   0.9998   1
1547.254   1.0370   0.0706   0.9997   1
1547.290   1.0038   0.0695   0.9996   1
1547.327   0.9980   0.0694   0.9994   1
1547.364   1.0395   0.0707   0.9991   1
1547.401   1.0460   0.0710   0.9988   1
1547.437   1.0904   0.0724   0.9983   1
1547.474   1.0226   0.0703   0.9976   1
1547.511   1.0587   0.0717   0.9967   1
1547.547   0.9980   0.0703   0.9955   1
1547.584   1.0151   0.0712   0.9939   1
1547.621   1.0071   0.0710   0.9920   1
1547.658   0.9658   0.0696   0.9895   1
1547.694   0.8950   0.0671   0.9864   1
1547.731   0.9715   0.0696   0.9827   1
1547.768   0.9338   0.0684   0.9782   1
1547.804   0.9973   0.0707   0.9727   1
1547.841   1.0353   0.0722   0.9659   1
1547.878   0.9617   0.0698   0.9566   1
1547.915   0.9324   0.0687   0.9424   1
1547.951   0.9003   0.0677   0.9190   1
1547.988   0.9123   0.0685   0.8797   1
1548.025   0.8683   0.0666   0.8174   1
1548.061   0.7620   0.0621   0.7314   1
1548.098   0.6134   0.0560   0.6288   1
1548.135   0.5098   0.0514   0.5269   1
1548.172   0.4637   0.0493   0.4443   1
1548.208   0.4042   0.0464   0.3952   1
1548.245   0.3689   0.0446   0.3857   1
1548.282   0.4063   0.0465   0.4146   1
1548.318   0.4446   0.0485   0.4774   1
1548.355   0.6279   0.0567   0.5616   1
1548.392   0.6436   0.0574   0.6501   1
1548.429   0.7545   0.0618   0.7262   1
1548.465   0.8055   0.0637   0.7814   1
1548.502   0.7779   0.0627   0.8166   1
1548.539   0.8773   0.0664   0.8372   1
1548.575   0.8892   0.0668   0.8500   1
1548.612   0.8585   0.0659   0.8598   1
1548.649   0.8483   0.0661   0.8690   1
1548.686   0.9202   0.0692   0.8785   1
1548.722   0.9332   0.0697   0.8884   1
1548.759   0.9478   0.0703   0.8988   1
1548.796   0.9037   0.0688   0.9093   1
1548.832   0.9233   0.0696   0.9197   1
1548.869   0.9148   0.0691   0.9298   1
1548.906   0.9222   0.0689   0.9394   1
1548.943   0.9077   0.0686   0.9484   1
1548.979   0.9837   0.0718   0.9566   1
1549.016   0.9713   0.0715   0.9640   1
1549.053   0.9324   0.0703   0.9705   1
1549.089   0.9959   0.0724   0.9761   1
1549.126   0.9792   0.0714   0.9809   1
1549.163   0.9400   0.0694   0.9849   1
1549.200   1.0346   0.0723   0.9883   1
1549.236   1.0851   0.0738   0.9910   1
1549.273   0.9812   0.0706   0.9932   1
1549.310   0.9617   0.0700   0.9949   1
1549.346   0.9676   0.0702   0.9962   1
1549.383   0.9603   0.0700   0.9972   1
1549.420   0.9380   0.0693   0.9980   1
1549.457   0.9247   0.0689   0.9986   1
1549.493   0.9666   0.0703   0.9990   1
1549.530   0.9973   0.0714   0.9993   1
1549.567   1.0105   0.0718   0.9995   1
1549.603   0.9890   0.0711   0.9997   1
1549.640   0.9827   0.0709   0.9998   1
1549.677   0.9978   0.0715   0.9998   1
1549.714   1.0832   0.0743   0.9999   1
1549.750   1.0402   0.0729   0.9999   1
1549.787   1.0526   0.0734   0.9999   1
1549.824   0.9363   0.0696   0.9999   1
1549.860   0.9726   0.0708   0.9998   1
1549.897   1.0611   0.0738   0.9997   1
1549.934   1.0222   0.0726   0.9996   1
1549.971   1.0241   0.0727   0.9995   1
1550.007   1.0070   0.0721   0.9992   1
1550.044   0.9980   0.0718   0.9989   1
1550.081   1.0098   0.0723   0.9985   1
1550.117   0.9419   0.0708   0.9980   1
1550.154   1.0071   0.0741   0.9973   1
1550.191   1.0481   0.0755   0.9964   1
1550.228   1.0074   0.0742   0.9953   1
1550.264   1.0704   0.0764   0.9938   1
1550.301   0.9640   0.0725   0.9921   1
1550.338   0.9698   0.0720   0.9900   1
1550.374   0.9425   0.0712   0.9874   1
1550.411   0.9460   0.0717   0.9842   1
1550.448   0.9957   0.0737   0.9801   1
1550.485   1.0056   0.0741   0.9741   1
1550.521   0.9929   0.0730   0.9642   1
1550.558   0.9253   0.0704   0.9473   1
1550.595   0.8722   0.0681   0.9188   1
1550.631   0.8371   0.0667   0.8753   1
1550.668   0.7701   0.0642   0.8171   1
1550.705   0.7317   0.0628   0.7502   1
1550.742   0.7088   0.0619   0.6868   1
1550.778   0.6631   0.0601   0.6397   1
1550.815   0.6346   0.0589   0.6200   1
1550.852   0.6116   0.0579   0.6306   1
1550.888   0.6845   0.0610   0.6676   1
1550.925   0.7345   0.0631   0.7225   1
1550.962   0.7488   0.0637   0.7815   1
1550.999   0.8498   0.0675   0.8336   1
1551.035   0.8071   0.0660   0.8718   1
1551.072   0.8330   0.0671   0.8964   1
1551.109   0.8306   0.0670   0.9109   1
1551.145   0.9024   0.0696   0.9193   1
1551.182   0.8627   0.0682   0.9251   1
1551.219   0.8662   0.0684   0.9301   1
1551.256   0.9280   0.0706   0.9351   1
1551.292   0.9397   0.0711   0.9403   1
1551.329   0.9726   0.0722   0.9457   1
1551.366   0.9995   0.0732   0.9512   1
1551.402   0.9726   0.0724   0.9567   1
1551.439   1.0042   0.0735   0.9620   1
1551.476   0.9373   0.0712   0.9671   1
1551.513   0.9566   0.0719   0.9719   1
1551.549   0.9861   0.0729   0.9763   1
1551.586   1.0035   0.0738   0.9802   1
1551.623   1.0763   0.0769   0.9837   1
1551.659   0.9451   0.0727   0.9868   1
1551.696   0.9106   0.0717   0.9894   1
1551.733   0.9588   0.0737   0.9916   1
1551.770   0.9863   0.0754   0.9934   1
1551.806   0.9888   0.0750   0.9949   1
1551.843   0.9711   0.0742   0.9961   1
1551.880   0.9265   0.0725   0.9971   1
1551.916   0.9280   0.0726   0.9978   1
1551.953   0.9648   0.0739   0.9984   1
1551.990   1.0048   0.0754   0.9988   1
1552.026   0.8849   0.0708   0.9992   1
1552.063   1.0402   0.0766   0.9994   1
1552.100   0.9677   0.0741   0.9996   1
1552.137   1.0222   0.0756   0.9997   1
1552.173   0.9547   0.0729   0.9998   1
1552.210   0.9534   0.0724   0.9999   1
1552.247   1.0155   0.0747   0.9999   1
1552.283   1.0324   0.0753   0.9999   1
1552.320   0.9644   0.0729   1.0000   1
1552.357   0.9631   0.0730   1.0000   1
1552.394   0.9299   0.0717   1.0000   1
1552.430   0.9696   0.0732   1.0000   1
1552.467   1.0475   0.0760   1.0000   1
1552.504   0.9649   0.0730   1.0000   1
1552.541   0.9400   0.0724   1.0000   1
1552.577   1.0724   0.0769   1.0000   1
1552.614   1.0055   0.0747   1.0000   1
1552.651   0.9900   0.0743   1.0000   1
1552.687   1.0430   0.0761   1.0000   1
1552.724   0.9654   0.0735   1.0000   1
1552.761   0.8936   0.0710   1.0000   1
1552.797   0.9643   0.0735   1.0000   1
1552.834   1.0502   0.0765   1.0000   1
1552.871   1.0491   0.0766   1.0000   1
1552.908   1.0871   0.0778   1.0000   1
1552.944   1.0182   0.0755   1.0000   1
1552.981   1.0456   0.0765   1.0000   1
1553.018   0.9592   0.0736   1.0000   1
1553.054   0.9963   0.0749   1.0000   1
1553.091   0.9550   0.0735   1.0000   1
1553.128   0.9001   0.0716   1.0000   1
1553.165   0.9756   0.0743   1.0000   1
1553.201   0.9975   0.0751   1.0000   1
1553.238   0.9763   0.0744   1.0000   1
1553.275   0.9352   0.0729   1.0000   1
1553.311   1.0018   0.0754   1.0000   1
1553.348   1.0449   0.0769   1.0000   1
1553.385   1.0425   0.0768   1.0000   1
1553.422   0.9884   0.0750   1.0000   1
1553.458   0.9546   0.0738   1.0000   1
1553.495   0.9418   0.0734   1.0000   1
1553.532   0.9839   0.0749   1.0000   1
1553.568   0.9867   0.0751   1.0000   1
1553.605   0.9715   0.0746   1.0000   1
1553.642   1.0318   0.0767   1.0000   1
1553.679   1.0238   0.0765   1.0000   1
1553.715   0.9757   0.0749   1.0000   1
1553.752   1.0071   0.0760   1.0000   1
1553.789   0.8937   0.0720   1.0000   1
1553.825   1.0181   0.0765   1.0000   1
1553.862   1.0492   0.0776   1.0000   1
1553.899   1.0241   0.0768   1.0000   1
1553.936   0.9639   0.0747   1.0000   1
1553.972   0.9870   0.0756   1.0000   1
1554.009   0.9619   0.0747   1.0000   1
1554.046   0.9792   0.0754   1.0000   1
1554.082   1.0225   0.0770   1.0000   1
1554.119   0.9637   0.0749   1.0000   1
1554.156   1.0281   0.0772   1.0000   1
1554.193   1.0483   0.0780   1.0000   1
1554.229   0.9893   0.0759   1.0000   1
1554.266   1.0413   0.0778   1.0000   1
1554.303   1.0103   0.0768   1.0000   1
1554.339   1.0369   0.0777   1.0000   1
1554.376   1.0764   0.0791   1.0000   1
1554.413   1.0944   0.0798   1.0000   1
1554.450   1.0062   0.0768   1.0000   1
1554.486   0.9581   0.0751   1.0000   1
1554.523   0.9677   0.0755   1.0000   1
1554.560   1.0170   0.0774   1.0000   1
1554.596   0.9482   0.0749   1.0000   1
1554.633   1.0193   0.0775   1.0000   1
1554.670   0.9738   0.0759   1.0000   1
1554.707   1.0105   0.0773   1.0000   1
1554.743   1.0167   0.0775   1.0000   1
1554.780   0.9694   0.0758   1.0000   1
1554.817   0.9593   0.0756   1.0000   1
1554.853   0.9650   0.0758   1.0000   1
1554.890   1.0789   0.0799   1.0000   1
1554.927   0.9288   0.0746   1.0000   1
1554.964   0.9560   0.0756   1.0000   1
1555.000   1.0090   0.0776   1.0000   1
1555.037   1.0496   0.0790   1.0000   1
1555.074   0.9489   0.0754   1.0000   1
1555.110   1.0346   0.0786   1.0000   1
1555.147   0.9767   0.0766   1.0000   1
1555.184   1.0342   0.0787   1.0000   1
1555.221   1.0042   0.0777   1.0000   1
1555.257   1.0242   0.0784   1.0000   1
1555.294   0.9925   0.0774   1.0000   1
1555.331   1.0089   0.0780   1.0000   1
1555.367   1.0462   0.0794   1.0000   1
1555.404   1.0240   0.0785   1.0000   1
1555.441   1.0128   0.0783   1.0000   1
1555.478   1.0256   0.0788   1.0000   1
1555.514   0.9617   0.0765   1.0000   1
1555.551   0.9753   0.0771   1.0000   1
1555.588   1.0037   0.0781   1.0000   1
1555.624   1.0806   0.0809   1.0000   1
1555.661   0.9527   0.0763   1.0000   1
1555.698   1.1051   0.0818   1.0000   1
1555.735   1.0203   0.0789   1.0000   1
1555.771   1.0527   0.0801   1.0000   1
1555.808   1.1478   0.0834   1.0000   1
1555.845   0.9980   0.0782   1.0000   1
1555.881   1.0240   0.0792   1.0000   1
1555.918   0.9912   0.0781   1.0000   1
