# Best-fit normalized data and profile from VoigtFit
# column 1 : Wavelength
# column 2 : Normalized flux
# column 3 : Normalized error
# column 4 : Best-fit profile
# column 5 : Pixel mask, 1=included, 0=excluded
1390.045   1.0841   0.2768   1.0000   1
1390.075   1.1592   0.2841   1.0000   1
1390.105   0.7677   0.2448   1.0000   1
1390.135   0.9464   0.2636   1.0000   1
1390.165   1.1188   0.2796   1.0000   1
1390.195   1.0241   0.2696   1.0000   1
1390.225   1.1080   0.2811   1.0000   1
1390.255   1.1246   0.2838   1.0000   1
1390.285   1.1298   0.2876   1.0000   1
1390.314   1.1941   0.2920   1.0000   1
1390.344   0.9805   0.2747   1.0000   1
1390.374   1.0266   0.2786   1.0000   1
1390.404   1.0036   0.2797   1.0000   1
1390.434   0.9243   0.2652   1.0000   1
1390.464   0.9067   0.2653   1.0000   1
1390.494   0.9989   0.2776   1.0000   1
1390.524   1.2831   0.3052   1.0000   1
1390.554   1.0679   0.2853   1.0000   1
1390.583   1.0857   0.2853   1.0000   1
1390.613   1.0559   0.2824   1.0000   1
1390.643   1.0054   0.2764   1.0000   1
1390.673   1.2607   0.2997   1.0000   1
1390.703   1.0697   0.2740   1.0000   1
1390.733   1.0217   0.2661   1.0000   1
1390.763   1.0286   0.2682   1.0000   1
1390.793   0.8753   0.2524   1.0000   1
1390.823   1.0884   0.2749   1.0000   1
1390.853   1.2114   0.2859   1.0000   1
1390.882   0.8317   0.2473   1.0000   1
1390.912   1.0904   0.2741   1.0000   1
1390.942   0.8675   0.2504   1.0000   1
1390.972   0.9896   0.2630   1.0000   1
1391.002   0.8217   0.2411   1.0000   1
1391.032   1.1872   0.2779   1.0000   1
1391.062   0.9248   0.2548   1.0000   1
1391.092   1.0213   0.2655   1.0000   1
1391.122   0.8101   0.2414   1.0000   1
1391.152   1.3095   0.2921   1.0000   1
1391.181   1.0298   0.2667   1.0000   1
1391.211   0.9354   0.2567   1.0000   1
1391.241   0.8265   0.2436   1.0000   1
1391.271   1.1398   0.2751   1.0000   1
1391.301   0.8966   0.2506   1.0000   1
1391.331   1.1725   0.2804   1.0000   1
1391.361   1.1401   0.2738   1.0000   1
1391.391   1.1543   0.2761   1.0000   1
1391.421   0.9692   0.2582   1.0000   1
1391.451   0.9911   0.2602   1.0000   1
1391.480   0.9366   0.2553   1.0000   1
1391.510   1.1251   0.2722   1.0000   1
1391.540   0.9387   0.2528   1.0000   1
1391.570   0.9794   0.2556   1.0000   1
1391.600   1.1630   0.2771   1.0000   1
1391.630   1.1253   0.2694   1.0000   1
1391.660   0.9644   0.2551   1.0000   1
1391.690   0.9888   0.2592   1.0000   1
1391.720   0.8706   0.2447   1.0000   1
1391.750   0.8378   0.2414   1.0000   1
1391.779   0.8776   0.2468   1.0000   1
1391.809   1.0106   0.2595   1.0000   1
1391.839   1.0203   0.2606   1.0000   1
1391.869   1.1307   0.2717   1.0000   1
1391.899   0.9433   0.2541   1.0000   1
1391.929   1.2394   0.2832   1.0000   1
1391.959   0.8632   0.2422   1.0000   1
1391.989   1.1179   0.2689   1.0000   1
1392.019   0.9738   0.2562   1.0000   1
1392.049   0.9300   0.2500   1.0000   1
1392.078   1.3778   0.2952   1.0000   1
1392.108   0.9718   0.2562   1.0000   1
1392.138   0.9800   0.2553   1.0000   1
1392.168   1.2288   0.2807   1.0000   1
1392.198   0.9985   0.2584   1.0000   1
1392.228   0.8023   0.2371   1.0000   1
1392.258   0.9617   0.2531   1.0000   1
1392.288   1.0510   0.2617   1.0000   1
1392.318   0.9218   0.2488   1.0000   1
1392.348   0.8858   0.2455   1.0000   1
1392.377   0.8797   0.2440   1.0000   1
1392.407   0.8491   0.2414   1.0000   1
1392.437   0.9020   0.2472   1.0000   1
1392.467   0.8172   0.2371   1.0000   1
1392.497   0.7939   0.2334   1.0000   1
1392.527   1.1263   0.2680   1.0000   1
1392.557   1.0698   0.2622   1.0000   1
1392.587   0.9467   0.2488   1.0000   1
1392.617   1.2350   0.2780   1.0000   1
1392.647   1.0867   0.2645   1.0000   1
1392.676   0.9290   0.2472   1.0000   1
1392.706   1.1073   0.2661   1.0000   1
1392.736   0.8801   0.2429   1.0000   1
1392.766   0.7693   0.2305   1.0000   1
1392.796   0.8321   0.2373   1.0000   1
1392.826   1.1583   0.2695   1.0000   1
1392.856   0.8798   0.2425   1.0000   1
1392.886   0.8481   0.2387   1.0000   1
1392.916   1.0333   0.2559   1.0000   1
1392.945   1.0785   0.2605   0.9998   1
1392.975   0.9808   0.2502   0.9991   1
1393.005   0.9390   0.2494   0.9963   1
1393.035   1.0261   0.2587   0.9880   1
1393.065   0.9662   0.2548   0.9683   1
1393.095   0.9361   0.2540   0.9322   1
1393.125   0.8568   0.2472   0.8817   1
1393.155   0.7785   0.2386   0.8304   1
1393.185   0.9821   0.2562   0.7989   1
1393.215   0.7078   0.2235   0.8022   1
1393.244   0.7995   0.2363   0.8358   1
1393.274   0.9436   0.2538   0.8797   1
1393.304   0.8916   0.2482   0.9118   1
1393.334   1.0270   0.2643   0.9199   1
1393.364   0.8235   0.2374   0.9031   1
1393.394   0.8107   0.2431   0.8674   1
1393.424   0.9325   0.2528   0.8200   1
1393.454   0.7176   0.2237   0.7684   1
1393.484   0.7347   0.2255   0.7195   1
1393.514   0.7030   0.2215   0.6792   1
1393.543   0.6019   0.2055   0.6518   1
1393.573   0.6670   0.2129   0.6371   1
1393.603   0.6926   0.2163   0.6278   1
1393.633   0.5278   0.1908   0.6081   1
1393.663   0.6309   0.2076   0.5643   1
1393.693   0.4436   0.1827   0.5016   1
1393.723   0.4840   0.1872   0.4498   1
1393.753   0.4903   0.1875   0.4474   1
1393.783   0.4814   0.1864   0.5155   1
1393.813   0.5958   0.2044   0.6408   1
1393.842   0.8205   0.2283   0.7803   1
1393.872   0.9022   0.2399   0.8902   1
1393.902   1.0122   0.2503   0.9552   1
1393.932   1.0416   0.2532   0.9846   1
1393.962   0.9042   0.2398   0.9942   1
1393.992   0.9391   0.2425   0.9917   1
1394.022   1.0431   0.2531   0.9720   1
1394.052   0.9320   0.2397   0.9213   1
1394.082   0.7446   0.2193   0.8440   1
1394.112   0.9531   0.2442   0.7807   1
1394.141   0.6994   0.2152   0.7793   1
1394.171   0.8235   0.2296   0.8409   1
1394.201   0.9894   0.2473   0.9187   1
1394.231   0.9470   0.2421   0.9711   1
1394.261   1.0350   0.2502   0.9926   1
1394.291   0.9187   0.2391   0.9986   1
1394.321   0.9511   0.2430   0.9998   1
1394.351   1.1208   0.2585   1.0000   1
1394.381   1.1036   0.2556   1.0000   1
1394.410   1.2916   0.2733   1.0000   1
1394.440   1.0596   0.2513   1.0000   1
1394.470   0.9108   0.2370   1.0000   1
1394.500   1.2322   0.2678   1.0000   1
1394.530   0.9241   0.2374   1.0000   1
1394.560   1.2596   0.2704   1.0000   1
1394.590   1.2275   0.2667   1.0000   1
1394.620   1.0329   0.2491   1.0000   1
1394.650   1.2581   0.2698   1.0000   1
1394.680   0.8112   0.2252   1.0000   1
1394.709   1.1603   0.2601   1.0000   1
1394.739   0.8927   0.2333   1.0000   1
1394.769   0.8974   0.2334   1.0000   1
1394.799   1.0692   0.2516   1.0000   1
1394.829   1.0415   0.2495   1.0000   1
1394.859   0.7014   0.2132   1.0000   1
1394.889   0.9005   0.2342   1.0000   1
1394.919   1.0271   0.2482   1.0000   1
1394.949   1.0527   0.2497   1.0000   1
1394.979   1.1271   0.2551   1.0000   1
1395.008   0.9972   0.2440   1.0000   1
1395.038   0.8475   0.2266   1.0000   1
1395.068   1.2492   0.2658   1.0000   1
1395.098   1.2309   0.2655   1.0000   1
1395.128   0.9404   0.2332   1.0000   1
1395.158   1.0232   0.2467   1.0000   1
1395.188   0.9233   0.2359   1.0000   1
1395.218   0.7662   0.2179   1.0000   1
1395.248   0.9159   0.2349   1.0000   1
1395.278   0.9346   0.2374   1.0000   1
1395.307   0.8367   0.2268   1.0000   1
1395.337   0.9800   0.2402   1.0000   1
1395.367   1.0083   0.2433   1.0000   1
1395.397   0.8298   0.2225   1.0000   1
1395.427   1.1292   0.2549   1.0000   1
1395.457   0.8806   0.2308   1.0000   1
1395.487   1.0199   0.2439   1.0000   1
1395.517   0.9319   0.2343   1.0000   1
1395.547   0.9147   0.2323   1.0000   1
1395.577   0.9066   0.2240   1.0000   1
1395.606   0.7499   0.2159   1.0000   1
1395.636   0.8902   0.2307   1.0000   1
1395.666   0.9101   0.2317   1.0000   1
1395.696   1.0843   0.2480   1.0000   1
1395.726   1.0544   0.2444   1.0000   1
1395.756   1.0320   0.2448   1.0000   1
1395.786   1.0731   0.2464   1.0000   1
1395.816   1.1475   0.2537   1.0000   1
1395.846   0.9538   0.2368   1.0000   1
1395.876   0.9923   0.2400   1.0000   1
1395.905   1.0076   0.2424   1.0000   1
1395.935   1.1226   0.2523   1.0000   1
1395.965   0.8497   0.2219   1.0000   1
1395.995   0.9298   0.2322   1.0000   1
1396.025   0.9023   0.2310   1.0000   1
1396.055   0.9051   0.2303   1.0000   1
1396.085   1.1770   0.2563   1.0000   1
1396.115   1.1512   0.2544   1.0000   1
1396.145   1.1374   0.2538   1.0000   1
1396.175   0.9639   0.2366   1.0000   1
1396.204   0.9208   0.2324   1.0000   1
1396.234   1.1155   0.2509   1.0000   1
1396.264   1.0619   0.2457   1.0000   1
1396.294   1.0629   0.2429   1.0000   1
1396.324   1.0182   0.2410   1.0000   1
1396.354   0.8683   0.2256   1.0000   1
1396.384   1.1528   0.2540   1.0000   1
1396.414   1.0767   0.2459   1.0000   1
1396.444   0.8629   0.2241   1.0000   1
1396.474   1.0173   0.2387   1.0000   1
1396.503   1.1459   0.2523   1.0000   1
1396.533   1.0793   0.2457   1.0000   1
1396.563   1.2519   0.2605   1.0000   1
1396.593   0.9742   0.2365   1.0000   1
1396.623   1.0916   0.2475   1.0000   1
1396.653   1.2302   0.2575   1.0000   1
1396.683   1.0581   0.2427   1.0000   1
1396.713   1.1569   0.2516   1.0000   1
1396.743   0.9807   0.2352   1.0000   1
1396.772   1.0839   0.2455   1.0000   1
1396.802   0.9790   0.2350   1.0000   1
1396.832   1.1680   0.2528   1.0000   1
1396.862   1.0260   0.2396   1.0000   1
1396.892   0.8918   0.2261   1.0000   1
1396.922   1.0994   0.2466   1.0000   1
1396.952   0.9110   0.2285   1.0000   1
1396.982   1.0847   0.2447   1.0000   1
1397.012   1.0867   0.2450   1.0000   1
1397.042   0.9745   0.2333   1.0000   1
1397.071   0.9188   0.2293   1.0000   1
1397.101   0.8399   0.2181   1.0000   1
1397.131   1.0476   0.2408   1.0000   1
1397.161   1.1062   0.2467   1.0000   1
1397.191   0.9869   0.2341   1.0000   1
1397.221   0.9410   0.2308   1.0000   1
1397.251   1.0452   0.2406   1.0000   1
1397.281   1.1414   0.2468   1.0000   1
1397.311   0.7461   0.2095   1.0000   1
1397.341   1.0050   0.2364   1.0000   1
1397.370   1.0221   0.2370   1.0000   1
1397.400   1.0216   0.2376   1.0000   1
1397.430   1.1428   0.2491   1.0000   1
1397.460   0.9814   0.2324   1.0000   1
