# Best-fit normalized data and profile from VoigtFit
# column 1 : Wavelength
# column 2 : Normalized flux
# column 3 : Normalized error
# column 4 : Best-fit profile
# column 5 : Pixel mask, 1=included, 0=excluded
1257.076   1.1011   0.3050   1.0000   1
1257.106   1.1749   0.3119   1.0000   1
1257.136   0.9680   0.2891   1.0000   1
1257.166   1.0385   0.2947   1.0000   1
1257.196   1.2419   0.3200   1.0000   1
1257.226   1.1029   0.3029   1.0000   1
1257.255   1.0141   0.2963   1.0000   1
1257.285   0.9314   0.2854   1.0000   1
1257.315   1.1929   0.3135   1.0000   1
1257.345   0.9799   0.2911   1.0000   1
1257.375   1.2742   0.3217   1.0000   1
1257.405   0.8858   0.2793   1.0000   1
1257.435   0.8705   0.2777   1.0000   1
1257.465   0.7919   0.2675   1.0000   1
1257.494   1.1825   0.3093   1.0000   1
1257.524   0.8247   0.2727   1.0000   1
1257.554   1.0366   0.2952   1.0000   1
1257.584   0.8838   0.2791   1.0000   1
1257.614   1.0012   0.2908   1.0000   1
1257.644   0.8278   0.2695   1.0000   1
1257.674   1.0874   0.3021   1.0000   1
1257.704   1.1028   0.2989   1.0000   1
1257.733   1.1044   0.2965   1.0000   1
1257.763   1.3008   0.3229   1.0000   1
1257.793   1.2368   0.3173   1.0000   1
1257.823   1.0093   0.2918   1.0000   1
1257.853   0.7622   0.2604   1.0000   1
1257.883   1.1389   0.3054   1.0000   1
1257.913   1.2441   0.3164   1.0000   1
1257.943   0.9028   0.2801   1.0000   1
1257.973   1.0957   0.2990   1.0000   1
1258.002   0.8020   0.2638   1.0000   1
1258.032   0.6932   0.2526   1.0000   1
1258.062   0.9497   0.2839   1.0000   1
1258.092   0.9063   0.2784   1.0000   1
1258.122   0.6938   0.2506   1.0000   1
1258.152   1.1085   0.3012   1.0000   1
1258.182   0.8786   0.2745   1.0000   1
1258.212   1.1127   0.3012   1.0000   1
1258.241   1.1019   0.3011   1.0000   1
1258.271   0.9772   0.2877   1.0000   1
1258.301   0.8869   0.2762   1.0000   1
1258.331   0.8665   0.2735   1.0000   1
1258.361   0.9367   0.2812   1.0000   1
1258.391   1.0194   0.2925   1.0000   1
1258.421   0.9340   0.2825   1.0000   1
1258.451   0.9734   0.2874   1.0000   1
1258.480   1.0488   0.2973   1.0000   1
1258.510   0.9543   0.2884   1.0000   1
1258.540   1.2100   0.3229   1.0000   1
1258.570   1.1328   0.3153   1.0000   1
1258.600   0.9570   0.3009   1.0000   1
1258.630   1.0555   0.3072   1.0000   1
1258.660   1.2373   0.3258   1.0000   1
1258.690   1.1318   0.3138   1.0000   1
1258.719   0.9499   0.2948   1.0000   1
1258.749   1.0202   0.3007   0.9999   1
1258.779   0.8478   0.2790   0.9999   1
1258.809   0.9476   0.2887   0.9999   1
1258.839   0.9811   0.2904   0.9999   1
1258.869   0.8940   0.2777   0.9999   1
1258.899   0.7921   0.2642   0.9999   1
1258.929   1.2211   0.3142   0.9999   1
1258.958   0.9267   0.2785   0.9999   1
1258.988   1.4456   0.3346   0.9999   1
1259.018   0.8416   0.2680   0.9999   1
1259.048   1.0413   0.2914   0.9999   1
1259.078   0.9058   0.2755   0.9999   1
1259.108   0.8909   0.2754   0.9999   1
1259.138   1.3445   0.3229   0.9998   1
1259.168   0.9477   0.2828   0.9998   1
1259.197   1.0176   0.2898   0.9997   1
1259.227   0.8074   0.2656   0.9995   1
1259.257   1.1703   0.3043   0.9980   1
1259.287   0.8499   0.2695   0.9905   1
1259.317   0.9463   0.2805   0.9621   1
1259.347   0.8204   0.2672   0.8830   1
1259.377   0.6580   0.2467   0.7279   1
1259.407   0.6695   0.2419   0.5165   1
1259.437   0.3610   0.1997   0.3231   1
1259.466   0.1352   0.1374   0.2212   1
1259.496   0.2909   0.1782   0.2397   1
1259.526   0.4272   0.2076   0.3708   1
1259.556   0.5431   0.2294   0.5680   1
1259.586   0.7503   0.2445   0.7490   1
1259.616   0.8019   0.2636   0.8515   1
1259.646   0.7731   0.2581   0.8713   1
1259.676   0.9546   0.2805   0.8388   1
1259.705   0.6539   0.2445   0.7817   1
1259.735   0.7972   0.2623   0.7159   1
1259.765   0.7889   0.2588   0.6512   1
1259.795   0.5430   0.2243   0.5955   1
1259.825   0.4895   0.2192   0.5551   1
1259.855   0.5810   0.2340   0.5342   1
1259.885   0.6893   0.2419   0.5342   1
1259.915   0.4844   0.2169   0.5545   1
1259.944   0.5036   0.2225   0.5913   1
1259.974   0.5459   0.2274   0.6376   1
1260.004   0.7670   0.2580   0.6822   1
1260.034   0.9073   0.2754   0.7107   1
1260.064   0.6967   0.2497   0.7085   1
1260.094   0.5709   0.2324   0.6655   1
1260.124   0.5677   0.2320   0.5815   1
1260.154   0.6470   0.2390   0.4683   1
1260.183   0.3086   0.1854   0.3463   1
1260.213   0.2430   0.1762   0.2366   1
1260.243   0.1505   0.1423   0.1522   1
1260.273   0.0380   0.1143   0.0952   1
1260.303   0.0534   0.1165   0.0612   1
1260.333   0.0833   0.1343   0.0436   1
1260.363   0.0775   0.1221   0.0372   1
1260.393   0.0602   0.1217   0.0399   1
1260.422   -0.0041   0.1041   0.0527   1
1260.452   0.0765   0.1280   0.0796   1
1260.482   0.1324   0.1511   0.1273   1
1260.512   0.2357   0.1734   0.2022   1
1260.542   0.3466   0.1966   0.3069   1
1260.572   0.4901   0.2191   0.4355   1
1260.602   0.6164   0.2361   0.5734   1
1260.632   0.6084   0.2380   0.7022   1
1260.661   0.7055   0.2502   0.8082   1
1260.691   0.9294   0.2744   0.8859   1
1260.721   0.8318   0.2633   0.9369   1
1260.751   0.9525   0.2802   0.9674   1
1260.781   0.8491   0.2649   0.9842   1
1260.811   0.9931   0.2806   0.9927   1
1260.841   1.0627   0.2927   0.9968   1
1260.871   1.3427   0.3211   0.9986   1
1260.900   1.1007   0.2960   0.9993   1
1260.930   0.8376   0.2669   0.9996   1
1260.960   1.2834   0.3151   0.9998   1
1260.990   1.2892   0.3141   0.9998   1
1261.020   1.1646   0.3032   0.9998   1
1261.050   0.8783   0.2697   0.9999   1
1261.080   1.0090   0.2843   0.9999   1
1261.110   1.0908   0.2940   0.9999   1
1261.140   1.0238   0.2867   0.9999   1
1261.169   1.0215   0.2873   0.9999   1
1261.199   0.9656   0.2775   0.9999   1
1261.229   0.9626   0.2777   0.9999   1
1261.259   0.9154   0.2749   0.9999   1
1261.289   1.1869   0.3044   0.9999   1
1261.319   1.2992   0.3150   0.9999   1
1261.349   1.0579   0.2910   0.9999   1
1261.379   0.9089   0.2712   0.9999   1
1261.408   1.1136   0.2965   0.9999   1
1261.438   1.0920   0.2929   0.9999   1
1261.468   1.0113   0.2849   0.9999   1
1261.498   0.9419   0.2715   1.0000   1
1261.528   1.1133   0.2956   1.0000   1
1261.558   1.1735   0.3030   1.0000   1
1261.588   0.7987   0.2610   1.0000   1
1261.618   0.9961   0.2831   1.0000   1
1261.647   1.2758   0.3091   1.0000   1
1261.677   1.1017   0.2950   1.0000   1
1261.707   1.1071   0.2932   1.0000   1
1261.737   0.9621   0.2776   1.0000   1
1261.767   1.1899   0.3026   1.0000   1
1261.797   0.7275   0.2518   1.0000   1
1261.827   1.0593   0.2901   1.0000   1
1261.857   0.9982   0.2832   1.0000   1
1261.886   0.8871   0.2704   1.0000   1
1261.916   1.0054   0.2832   1.0000   1
1261.946   1.0915   0.2928   1.0000   1
1261.976   0.9474   0.2764   1.0000   1
1262.006   0.9160   0.2732   1.0000   1
1262.036   1.1048   0.2927   1.0000   1
1262.066   0.9146   0.2733   1.0000   1
1262.096   1.1412   0.2957   1.0000   1
1262.125   1.1353   0.2963   1.0000   1
1262.155   1.0352   0.2846   1.0000   1
1262.185   1.0152   0.2826   1.0000   1
1262.215   1.1685   0.3008   1.0000   1
1262.245   1.1561   0.2964   1.0000   1
1262.275   1.0489   0.2872   1.0000   1
1262.305   1.0156   0.2835   1.0000   1
1262.335   0.8617   0.2659   1.0000   1
1262.364   1.0657   0.2888   1.0000   1
1262.394   0.8761   0.2669   1.0000   1
1262.424   1.1993   0.3040   1.0000   1
1262.454   1.0309   0.2860   1.0000   1
1262.484   0.7918   0.2573   1.0000   1
1262.514   0.9767   0.2795   1.0000   1
1262.544   0.7762   0.2563   1.0000   1
1262.574   0.9415   0.2755   1.0000   1
1262.604   1.1649   0.2992   1.0000   1
1262.633   1.1128   0.2930   1.0000   1
1262.663   1.0628   0.2859   1.0000   1
1262.693   0.8583   0.2654   1.0000   1
1262.723   1.3655   0.3188   1.0000   1
1262.753   0.9618   0.2768   1.0000   1
1262.783   0.8397   0.2624   1.0000   1
1262.813   1.3289   0.3153   1.0000   1
1262.843   1.1474   0.2973   1.0000   1
1262.872   0.9930   0.2807   1.0000   1
1262.902   1.0415   0.2857   1.0000   1
1262.932   1.0620   0.2884   1.0000   1
1262.962   1.1254   0.2953   1.0000   1
1262.992   0.9431   0.2733   1.0000   1
1263.022   1.0701   0.2889   1.0000   1
1263.052   1.1390   0.2937   1.0000   1
1263.082   0.9449   0.2732   1.0000   1
1263.111   0.9845   0.2777   1.0000   1
1263.141   1.0431   0.2847   1.0000   1
1263.171   1.0014   0.2793   1.0000   1
1263.201   0.9020   0.2699   1.0000   1
1263.231   0.9002   0.2696   1.0000   1
1263.261   1.1013   0.2899   1.0000   1
1263.291   0.8358   0.2626   1.0000   1
1263.321   1.0019   0.2807   1.0000   1
1263.350   0.9479   0.2741   1.0000   1
1263.380   1.4187   0.3217   1.0000   1
1263.410   0.8910   0.2601   1.0000   1
1263.440   1.0272   0.2839   1.0000   1
1263.470   0.9707   0.2750   1.0000   1
1263.500   0.8234   0.2565   1.0000   1
1263.530   0.9442   0.2731   1.0000   1
1263.560   0.9664   0.2693   1.0000   1
1263.589   0.8794   0.2673   1.0000   1
1263.619   0.9498   0.2752   1.0000   1
1263.649   1.0102   0.2806   1.0000   1
1263.679   0.9698   0.2765   1.0000   1
1263.709   0.8460   0.2635   1.0000   1
1263.739   0.9878   0.2738   1.0000   1
1263.769   0.7801   0.2528   1.0000   1
