# Best-fit normalized data and profile from VoigtFit
# column 1 : Wavelength
# column 2 : Normalized flux
# column 3 : Normalized error
# column 4 : Best-fit profile
# column 5 : Pixel mask, 1=included, 0=excluded
1188.536   1.0751   0.3020   1.0000   1
1188.566   1.1663   0.3109   1.0000   1
1188.596   1.0426   0.2951   1.0000   1
1188.626   0.9191   0.2829   1.0000   1
1188.656   1.3994   0.3319   1.0000   1
1188.686   0.9281   0.2833   1.0000   1
1188.716   1.0283   0.2919   1.0000   1
1188.746   1.1604   0.3080   1.0000   1
1188.775   1.0151   0.2947   1.0000   1
1188.805   0.9355   0.2908   1.0000   1
1188.835   0.8604   0.2808   1.0000   1
1188.865   1.0787   0.3071   1.0000   1
1188.895   1.0028   0.2969   1.0000   1
1188.925   1.1524   0.3151   1.0000   1
1188.955   0.9122   0.2877   1.0000   1
1188.985   1.0040   0.2963   1.0000   1
1189.015   0.8195   0.2732   1.0000   1
1189.044   0.8798   0.2797   1.0000   1
1189.074   0.9153   0.2857   1.0000   1
1189.104   0.7725   0.2675   1.0000   1
1189.134   1.0749   0.3026   1.0000   1
1189.164   1.0537   0.2954   1.0000   1
1189.194   1.1064   0.2980   1.0000   1
1189.224   0.7769   0.2565   1.0000   1
1189.254   0.9971   0.2848   1.0000   1
1189.283   1.1173   0.2973   1.0000   1
1189.313   0.9470   0.2787   1.0000   1
1189.343   1.0071   0.2836   1.0000   1
1189.373   1.0647   0.2894   1.0000   1
1189.403   1.1209   0.2940   1.0000   1
1189.433   1.0308   0.2873   1.0000   1
1189.463   1.0409   0.2841   1.0000   1
1189.493   0.7984   0.2587   1.0000   1
1189.522   1.0823   0.2918   1.0000   1
1189.552   1.1305   0.2951   1.0000   1
1189.582   0.8652   0.2645   1.0000   1
1189.612   1.0945   0.2912   1.0000   1
1189.642   1.0682   0.2875   1.0000   0
1189.672   1.0330   0.2831   1.0000   0
1189.702   1.0316   0.2832   1.0000   0
1189.732   1.1092   0.2911   1.0000   0
1189.761   0.8304   0.2608   1.0000   0
1189.791   0.8513   0.2594   1.0000   0
1189.821   0.7847   0.2531   1.0000   0
1189.851   0.7719   0.2534   1.0000   0
1189.881   0.6458   0.2366   1.0000   0
1189.911   0.6500   0.2356   1.0000   0
1189.941   0.7052   0.2424   1.0000   0
1189.971   0.8869   0.2652   1.0000   0
1190.001   0.8860   0.2630   1.0000   0
1190.030   0.8216   0.2527   1.0000   0
1190.060   0.7774   0.2509   1.0000   0
1190.090   0.7123   0.2397   1.0000   0
1190.120   0.6619   0.2323   1.0000   0
1190.150   0.6469   0.2345   1.0000   0
1190.180   0.6742   0.2364   1.0000   0
1190.210   0.5838   0.2215   1.0000   0
1190.240   0.3976   0.1968   1.0000   0
1190.269   0.1373   0.1395   1.0000   0
1190.299   0.1252   0.1396   1.0000   0
1190.329   0.1222   0.1318   1.0000   0
1190.359   0.1218   0.1279   1.0000   0
1190.389   0.0835   0.1257   1.0000   0
1190.419   0.0624   0.1140   1.0000   0
1190.449   0.1386   0.1321   1.0000   0
1190.479   0.1208   0.1283   1.0000   0
1190.508   0.2787   0.1702   1.0000   0
1190.538   0.6162   0.2267   1.0000   0
1190.568   0.6088   0.2213   1.0000   0
1190.598   0.7774   0.2391   1.0000   0
1190.628   0.8918   0.2574   1.0000   0
1190.658   1.0600   0.2778   1.0000   0
1190.688   0.8985   0.2590   1.0000   0
1190.718   1.0104   0.2713   1.0000   0
1190.747   0.7929   0.2429   1.0000   0
1190.777   0.7806   0.2458   1.0000   0
1190.807   1.0000   0.2693   1.0000   0
1190.837   0.9109   0.2587   1.0000   0
1190.867   0.9395   0.2628   1.0000   0
1190.897   0.9620   0.2632   1.0000   0
1190.927   0.7718   0.2430   1.0000   0
1190.957   1.0077   0.2685   1.0000   0
1190.986   0.9542   0.2617   1.0000   0
1191.016   0.8724   0.2525   1.0000   0
1191.046   0.9041   0.2541   1.0000   1
1191.076   1.1109   0.2763   1.0000   1
1191.106   1.0194   0.2685   1.0000   1
1191.136   1.1107   0.2784   1.0000   1
1191.166   1.0067   0.2666   1.0000   1
1191.196   1.2045   0.2883   1.0000   1
1191.225   1.0336   0.2716   1.0000   1
1191.255   0.7643   0.2423   1.0000   1
1191.285   1.1057   0.2843   1.0000   1
1191.315   1.1379   0.2879   1.0000   1
1191.345   0.7554   0.2385   1.0000   1
1191.375   0.9024   0.2641   1.0000   1
1191.405   0.9021   0.2603   1.0000   1
1191.435   1.0956   0.2832   1.0000   1
1191.465   0.9043   0.2573   1.0000   1
1191.494   1.0159   0.2715   1.0000   1
1191.524   1.2404   0.2926   1.0000   1
1191.554   1.1410   0.2882   1.0000   1
1191.584   1.1082   0.2811   1.0000   1
1191.614   1.0761   0.2768   1.0000   1
1191.644   1.0821   0.2764   1.0000   1
1191.674   0.9567   0.2620   1.0000   1
1191.704   0.9834   0.2654   0.9999   1
1191.733   1.1324   0.2776   0.9999   1
1191.763   0.9324   0.2552   0.9999   1
1191.793   1.0765   0.2691   0.9999   1
1191.823   1.0135   0.2625   0.9999   1
1191.853   1.0372   0.2623   0.9999   1
1191.883   1.0367   0.2631   0.9999   1
1191.913   1.1486   0.2741   0.9999   1
1191.943   1.1283   0.2724   0.9999   1
1191.972   1.0552   0.2643   0.9999   1
1192.002   0.9292   0.2487   0.9999   1
1192.032   0.8626   0.2412   0.9999   1
1192.062   0.9563   0.2534   0.9999   1
1192.092   0.9433   0.2534   0.9999   1
1192.122   0.9777   0.2555   0.9999   1
1192.152   0.7793   0.2327   0.9998   1
1192.182   1.1909   0.2750   0.9997   1
1192.211   1.2620   0.2827   0.9994   1
1192.241   0.8573   0.2417   0.9989   1
1192.271   1.1979   0.2765   0.9979   1
1192.301   1.0016   0.2570   0.9960   1
1192.331   0.9531   0.2518   0.9927   1
1192.361   0.9681   0.2527   0.9869   1
1192.391   1.1373   0.2698   0.9776   1
1192.421   0.9952   0.2519   0.9636   1
1192.450   0.9307   0.2482   0.9436   1
1192.480   0.7111   0.2242   0.9167   1
1192.510   0.8880   0.2411   0.8832   1
1192.540   0.7756   0.2304   0.8439   1
1192.570   0.8660   0.2394   0.8011   1
1192.600   0.9051   0.2450   0.7577   1
1192.630   0.8812   0.2411   0.7168   1
1192.660   0.6815   0.2176   0.6811   1
1192.690   0.4893   0.1913   0.6519   1
1192.719   0.6340   0.2125   0.6286   1
1192.749   0.5853   0.2051   0.6090   1
1192.779   0.6673   0.2165   0.5884   1
1192.809   0.4948   0.1927   0.5614   1
1192.839   0.5508   0.2004   0.5225   1
1192.869   0.5388   0.1997   0.4678   1
1192.899   0.4491   0.1866   0.3989   1
1192.929   0.2967   0.1552   0.3213   1
1192.958   0.2012   0.1413   0.2431   1
1192.988   0.1529   0.1335   0.1734   1
1193.018   0.1274   0.1216   0.1172   1
1193.048   0.0749   0.1027   0.0759   1
1193.078   0.0512   0.0978   0.0486   1
1193.108   0.0538   0.1053   0.0315   1
1193.138   0.0407   0.0961   0.0214   1
1193.168   0.0220   0.0869   0.0158   1
1193.197   0.0332   0.0909   0.0133   1
1193.227   -0.0198   0.0778   0.0130   1
1193.257   0.0065   0.0822   0.0147   1
1193.287   0.0350   0.0910   0.0191   1
1193.317   0.0178   0.0849   0.0276   1
1193.347   0.0218   0.0856   0.0423   1
1193.377   0.1273   0.1263   0.0668   1
1193.407   0.1533   0.1278   0.1056   1
1193.436   0.1656   0.1202   0.1621   1
1193.466   0.2035   0.1340   0.2384   1
1193.496   0.2451   0.1414   0.3337   1
1193.526   0.5020   0.1901   0.4418   1
1193.556   0.6543   0.2082   0.5537   1
1193.586   0.6646   0.2087   0.6604   1
1193.616   0.7933   0.2227   0.7536   1
1193.646   0.7861   0.2233   0.8296   1
1193.676   0.8339   0.2293   0.8875   1
1193.705   0.8000   0.2231   0.9284   0
1193.735   0.8067   0.2253   0.9562   0
1193.765   0.8218   0.2266   0.9742   0
1193.795   0.7879   0.2231   0.9852   0
1193.825   0.4721   0.1838   0.9917   0
1193.855   0.4257   0.1764   0.9955   0
1193.885   0.1391   0.1158   0.9976   0
1193.915   0.0653   0.1037   0.9987   0
1193.944   0.0890   0.1038   0.9993   0
1193.974   0.0619   0.1041   0.9996   0
1194.004   0.0886   0.1019   0.9997   0
1194.034   0.0285   0.0871   0.9998   0
1194.064   0.0597   0.1010   0.9998   0
1194.094   0.1168   0.1041   0.9998   0
1194.124   0.1136   0.1184   0.9999   0
1194.154   0.1490   0.1217   0.9999   0
1194.183   0.2432   0.1446   0.9999   0
1194.213   0.3447   0.1604   0.9999   0
1194.243   0.5806   0.1955   0.9999   0
1194.273   0.5596   0.1922   0.9999   0
1194.303   0.8821   0.2300   0.9999   0
1194.333   0.8880   0.2291   0.9999   0
1194.363   1.1032   0.2517   0.9999   0
1194.393   0.8416   0.2226   0.9999   0
1194.422   1.1560   0.2544   0.9999   0
1194.452   1.0338   0.2427   0.9999   0
1194.482   0.9880   0.2388   0.9999   1
1194.512   1.0241   0.2436   0.9999   1
1194.542   1.2552   0.2637   0.9999   1
1194.572   0.8539   0.2253   0.9999   1
1194.602   1.0092   0.2410   0.9999   1
1194.632   0.8549   0.2236   0.9999   1
1194.661   1.1114   0.2501   1.0000   1
1194.691   0.9805   0.2374   1.0000   1
1194.721   1.1327   0.2507   1.0000   1
1194.751   1.0584   0.2441   1.0000   1
1194.781   0.8693   0.2254   1.0000   1
1194.811   1.0351   0.2416   1.0000   1
1194.841   0.9228   0.2305   1.0000   1
1194.871   1.1467   0.2495   1.0000   1
1194.900   1.0052   0.2374   1.0000   1
1194.930   1.0224   0.2383   1.0000   1
1194.960   1.0084   0.2367   1.0000   1
1194.990   1.1273   0.2464   1.0000   1
1195.020   1.0437   0.2406   1.0000   1
1195.050   1.1489   0.2495   1.0000   1
1195.080   0.9270   0.2298   1.0000   1
1195.110   1.0637   0.2413   1.0000   1
1195.140   0.9975   0.2347   1.0000   1
1195.169   1.0263   0.2366   1.0000   1
1195.199   0.8963   0.2256   1.0000   1
1195.229   1.0165   0.2367   1.0000   1
1195.259   0.9185   0.2254   1.0000   1
1195.289   1.1357   0.2467   1.0000   1
1195.319   0.9062   0.2254   1.0000   1
1195.349   0.9931   0.2312   1.0000   1
1195.379   0.8866   0.2230   1.0000   1
1195.408   1.0482   0.2389   1.0000   1
1195.438   1.1319   0.2458   1.0000   1
1195.468   0.9640   0.2291   1.0000   1
1195.498   0.9682   0.2304   1.0000   1
1195.528   0.9639   0.2306   1.0000   1
1195.558   0.9997   0.2324   1.0000   1
1195.588   1.0883   0.2410   1.0000   1
1195.618   0.9231   0.2232   1.0000   1
1195.647   1.1241   0.2448   1.0000   1
1195.677   1.0091   0.2332   1.0000   1
1195.707   1.2342   0.2530   1.0000   1
1195.737   0.8471   0.2162   1.0000   1
1195.767   1.2371   0.2527   1.0000   1
1195.797   0.9437   0.2264   1.0000   1
1195.827   1.1178   0.2415   1.0000   1
1195.857   1.2128   0.2507   1.0000   1
1195.886   1.1298   0.2435   1.0000   1
1195.916   0.9402   0.2246   1.0000   1
1195.946   0.7912   0.2106   1.0000   1
1195.976   0.8968   0.2213   1.0000   1
1196.006   1.0365   0.2341   1.0000   1
1196.036   0.9450   0.2245   1.0000   1
1196.066   1.0582   0.2355   1.0000   1
1196.096   0.9858   0.2287   1.0000   1
1196.126   0.9534   0.2257   1.0000   1
1196.155   0.9932   0.2295   1.0000   1
1196.185   1.0440   0.2331   1.0000   1
1196.215   0.8624   0.2150   1.0000   1
1196.245   0.8838   0.2174   1.0000   1
1196.275   0.9856   0.2276   1.0000   1
1196.305   1.0371   0.2326   1.0000   1
1196.335   0.8686   0.2145   1.0000   1
1196.365   0.8836   0.2177   1.0000   1
1196.394   0.7613   0.2039   1.0000   1
1196.424   0.8514   0.2130   1.0000   1
1196.454   0.9631   0.2243   1.0000   1
1196.484   0.7923   0.2072   1.0000   1
1196.514   0.9362   0.2215   1.0000   1
1196.544   0.9007   0.2168   1.0000   1
1196.574   0.7665   0.2044   1.0000   1
1196.604   0.8952   0.2171   1.0000   1
1196.633   1.1145   0.2373   1.0000   1
1196.663   0.8444   0.2122   1.0000   1
1196.693   0.9062   0.2170   1.0000   1
1196.723   0.9193   0.2180   1.0000   1
1196.753   1.0323   0.2275   1.0000   1
1196.783   0.7617   0.2015   1.0000   1
1196.813   0.9261   0.2180   1.0000   1
1196.843   0.9240   0.2178   1.0000   1
1196.872   0.9493   0.2210   1.0000   1
1196.902   0.9459   0.2200   1.0000   1
1196.932   1.1513   0.2373   1.0000   1
1196.962   0.9674   0.2213   1.0000   1
1196.992   1.0051   0.2243   1.0000   1
1197.022   0.8363   0.2075   1.0000   1
1197.052   0.9643   0.2223   1.0000   1
1197.082   0.8617   0.2134   1.0000   1
1197.111   0.8580   0.2137   1.0000   1
1197.141   0.9982   0.2295   1.0000   1
1197.171   1.0562   0.2365   1.0000   1
1197.201   1.0721   0.2383   1.0000   1
1197.231   1.3017   0.2589   1.0000   1
1197.261   1.2301   0.2519   1.0000   1
1197.291   1.1297   0.2414   1.0000   1
1197.321   1.0900   0.2351   1.0000   1
1197.350   0.9989   0.2281   1.0000   1
1197.380   1.1398   0.2403   1.0000   1
1197.410   1.0605   0.2350   1.0000   1
1197.440   1.2714   0.2537   1.0000   1
1197.470   1.0673   0.2379   1.0000   1
1197.500   1.1349   0.2428   1.0000   1
1197.530   1.1239   0.2387   1.0000   1
1197.560   0.9975   0.2239   1.0000   1
1197.590   1.1644   0.2361   1.0000   1
1197.619   0.8204   0.2037   1.0000   1
1197.649   1.1890   0.2358   1.0000   1
1197.679   1.0616   0.2262   1.0000   1
1197.709   1.1659   0.2349   1.0000   1
1197.739   1.2389   0.2405   1.0000   1
1197.769   1.0020   0.2195   1.0000   1
1197.799   1.1194   0.2305   1.0000   1
1197.829   1.2481   0.2413   1.0000   1
1197.858   0.9630   0.2163   1.0000   1
1197.888   1.1378   0.2284   1.0000   1
1197.918   0.9695   0.2160   1.0000   1
1197.948   1.0199   0.2201   1.0000   1
1197.978   0.9628   0.2152   1.0000   1
1198.008   1.0468   0.2224   1.0000   1
1198.038   1.0016   0.2187   1.0000   1
