# Best-fit normalized data and profile from VoigtFit
# column 1 : Wavelength
# column 2 : Normalized flux
# column 3 : Normalized error
# column 4 : Best-fit profile
# column 5 : Pixel mask, 1=included, 0=excluded
1188.536   1.0439   0.2932   0.9856   1
1188.566   1.1326   0.3020   0.9848   1
1188.596   1.0126   0.2866   0.9839   1
1188.626   0.8928   0.2748   0.9830   1
1188.656   1.3594   0.3224   0.9821   1
1188.686   0.9016   0.2752   0.9811   1
1188.716   0.9991   0.2836   0.9802   1
1188.746   1.1275   0.2993   0.9792   1
1188.775   0.9865   0.2864   0.9782   1
1188.805   0.9093   0.2827   0.9772   1
1188.835   0.8363   0.2729   0.9762   1
1188.865   1.0486   0.2985   0.9752   1
1188.895   0.9750   0.2887   0.9742   1
1188.925   1.1205   0.3064   0.9731   1
1188.955   0.8871   0.2798   0.9721   1
1188.985   0.9764   0.2881   0.9711   1
1189.015   0.7970   0.2657   0.9701   1
1189.044   0.8558   0.2720   0.9691   1
1189.074   0.8904   0.2779   0.9681   1
1189.104   0.7515   0.2603   0.9671   1
1189.134   1.0459   0.2944   0.9662   1
1189.164   1.0254   0.2875   0.9652   1
1189.194   1.0768   0.2900   0.9644   1
1189.224   0.7562   0.2497   0.9635   1
1189.254   0.9706   0.2773   0.9627   1
1189.283   1.0877   0.2894   0.9619   1
1189.313   0.9220   0.2714   0.9611   1
1189.343   0.9807   0.2761   0.9605   1
1189.373   1.0368   0.2818   0.9598   1
1189.403   1.0916   0.2864   0.9592   1
1189.433   1.0040   0.2799   0.9587   1
1189.463   1.0139   0.2768   0.9582   1
1189.493   0.7778   0.2520   0.9578   1
1189.522   1.0545   0.2843   0.9574   1
1189.552   1.1016   0.2875   0.9571   1
1189.582   0.8431   0.2577   0.9568   1
1189.612   1.0667   0.2838   0.9567   1
1189.642   1.0412   0.2802   0.9565   0
1189.672   1.0069   0.2760   0.9565   0
1189.702   1.0057   0.2760   0.9565   0
1189.732   1.0814   0.2838   0.9566   0
1189.761   0.8097   0.2543   0.9567   0
1189.791   0.8302   0.2529   0.9569   0
1189.821   0.7653   0.2468   0.9572   0
1189.851   0.7529   0.2472   0.9575   0
1189.881   0.6300   0.2308   0.9579   0
1189.911   0.6342   0.2298   0.9584   0
1189.941   0.6881   0.2365   0.9589   0
1189.971   0.8654   0.2588   0.9595   0
1190.001   0.8646   0.2567   0.9601   0
1190.030   0.8018   0.2467   0.9607   0
1190.060   0.7588   0.2449   0.9614   0
1190.090   0.6953   0.2340   0.9622   0
1190.120   0.6462   0.2268   0.9630   0
1190.150   0.6316   0.2289   0.9638   0
1190.180   0.6583   0.2308   0.9647   0
1190.210   0.5701   0.2163   0.9656   0
1190.240   0.3883   0.1922   0.9665   0
1190.269   0.1341   0.1362   0.9674   0
1190.299   0.1223   0.1363   0.9684   0
1190.329   0.1194   0.1288   0.9694   0
1190.359   0.1190   0.1250   0.9703   0
1190.389   0.0816   0.1228   0.9713   0
1190.419   0.0610   0.1114   0.9723   0
1190.449   0.1354   0.1291   0.9733   0
1190.479   0.1180   0.1254   0.9743   0
1190.508   0.2724   0.1663   0.9753   0
1190.538   0.6023   0.2216   0.9763   0
1190.568   0.5951   0.2164   0.9773   0
1190.598   0.7600   0.2338   0.9783   0
1190.628   0.8720   0.2517   0.9792   0
1190.658   1.0366   0.2717   0.9801   0
1190.688   0.8787   0.2533   0.9811   0
1190.718   0.9882   0.2654   0.9819   0
1190.747   0.7756   0.2376   0.9828   0
1190.777   0.7637   0.2404   0.9837   0
1190.807   0.9783   0.2635   0.9845   0
1190.837   0.8913   0.2531   0.9853   0
1190.867   0.9193   0.2572   0.9860   0
1190.897   0.9414   0.2576   0.9867   0
1190.927   0.7554   0.2379   0.9874   0
1190.957   0.9863   0.2628   0.9881   0
1190.986   0.9340   0.2562   0.9888   0
1191.016   0.8541   0.2472   0.9894   0
1191.046   0.8851   0.2488   0.9899   0
1191.076   1.0877   0.2705   0.9905   0
1191.106   0.9982   0.2629   0.9910   1
1191.136   1.0877   0.2726   0.9915   1
1191.166   0.9859   0.2611   0.9919   1
1191.196   1.1797   0.2824   0.9924   1
1191.225   1.0125   0.2661   0.9928   1
1191.255   0.7488   0.2374   0.9931   1
1191.285   1.0833   0.2785   0.9935   1
1191.315   1.1149   0.2821   0.9938   1
1191.345   0.7402   0.2337   0.9941   1
1191.375   0.8843   0.2588   0.9944   1
1191.405   0.8842   0.2551   0.9946   1
1191.435   1.0738   0.2776   0.9948   1
1191.465   0.8865   0.2522   0.9950   1
1191.494   0.9959   0.2662   0.9952   1
1191.524   1.2161   0.2868   0.9954   1
1191.554   1.1188   0.2825   0.9955   1
1191.584   1.0867   0.2756   0.9956   1
1191.614   1.0553   0.2714   0.9957   1
1191.644   1.0613   0.2711   0.9958   1
1191.674   0.9384   0.2570   0.9959   1
1191.704   0.9647   0.2603   0.9960   1
1191.733   1.1109   0.2723   0.9960   1
1191.763   0.9148   0.2504   0.9960   1
1191.793   1.0563   0.2641   0.9961   1
1191.823   0.9946   0.2576   0.9961   1
1191.853   1.0178   0.2574   0.9961   1
1191.883   1.0175   0.2583   0.9960   1
1191.913   1.1274   0.2690   0.9960   1
1191.943   1.1076   0.2674   0.9960   1
1191.972   1.0359   0.2595   0.9959   1
1192.002   0.9123   0.2442   0.9958   1
1192.032   0.8470   0.2369   0.9958   1
1192.062   0.9390   0.2488   0.9957   1
1192.092   0.9263   0.2489   0.9955   1
1192.122   0.9602   0.2510   0.9953   1
1192.152   0.7654   0.2286   0.9951   1
1192.182   1.1698   0.2701   0.9946   1
1192.211   1.2397   0.2777   0.9939   1
1192.241   0.8423   0.2375   0.9926   1
1192.271   1.1770   0.2716   0.9905   1
1192.301   0.9842   0.2525   0.9870   1
1192.331   0.9366   0.2474   0.9816   1
1192.361   0.9514   0.2484   0.9734   1
1192.391   1.1178   0.2652   0.9614   1
1192.421   0.9782   0.2476   0.9448   1
1192.450   0.9149   0.2440   0.9228   1
1192.480   0.6990   0.2205   0.8951   1
1192.510   0.8731   0.2370   0.8621   1
1192.540   0.7626   0.2265   0.8250   1
1192.570   0.8516   0.2354   0.7853   1
1192.600   0.8901   0.2410   0.7454   1
1192.630   0.8667   0.2371   0.7075   1
1192.660   0.6703   0.2140   0.6735   1
1192.690   0.4813   0.1882   0.6445   1
1192.719   0.6237   0.2090   0.6200   1
1192.749   0.5759   0.2018   0.5985   1
1192.779   0.6566   0.2130   0.5764   1
1192.809   0.4868   0.1896   0.5492   1
1192.839   0.5421   0.1972   0.5120   1
1192.869   0.5302   0.1965   0.4608   1
1192.899   0.4420   0.1837   0.3954   1
1192.929   0.2921   0.1528   0.3203   1
1192.958   0.1981   0.1391   0.2428   1
1192.988   0.1506   0.1314   0.1722   1
1193.018   0.1254   0.1197   0.1145   1
1193.048   0.0738   0.1011   0.0721   1
1193.078   0.0504   0.0963   0.0443   1
1193.108   0.0530   0.1037   0.0272   1
1193.138   0.0401   0.0946   0.0174   1
1193.168   0.0217   0.0856   0.0123   1
1193.197   0.0327   0.0895   0.0100   1
1193.227   -0.0195   0.0767   0.0096   1
1193.257   0.0064   0.0810   0.0111   1
1193.287   0.0345   0.0897   0.0151   1
1193.317   0.0175   0.0836   0.0231   1
1193.347   0.0214   0.0844   0.0375   1
1193.377   0.1255   0.1244   0.0624   1
1193.407   0.1511   0.1259   0.1027   1
1193.436   0.1633   0.1185   0.1622   1
1193.466   0.2006   0.1321   0.2424   1
1193.496   0.2417   0.1394   0.3406   1
1193.526   0.4949   0.1874   0.4483   1
1193.556   0.6451   0.2053   0.5543   1
1193.586   0.6553   0.2058   0.6484   1
1193.616   0.7823   0.2196   0.7224   1
1193.646   0.7753   0.2202   0.7740   1
1193.676   0.8225   0.2262   0.8033   1
1193.705   0.7891   0.2201   0.8111   1
1193.735   0.7957   0.2222   0.8003   1
1193.765   0.8107   0.2236   0.7703   1
1193.795   0.7773   0.2201   0.7098   1
1193.825   0.4658   0.1813   0.5845   1
1193.855   0.4201   0.1741   0.3744   1
1193.885   0.1372   0.1143   0.1551   1
1193.915   0.0644   0.1023   0.0372   1
1193.944   0.0878   0.1024   0.0047   1
1193.974   0.0611   0.1028   0.0003   1
1194.004   0.0875   0.1006   0.0000   1
1194.034   0.0281   0.0860   0.0000   1
1194.064   0.0590   0.0997   0.0000   1
1194.094   0.1153   0.1028   0.0005   1
1194.124   0.1121   0.1169   0.0082   1
1194.154   0.1471   0.1202   0.0565   1
1194.183   0.2402   0.1428   0.2030   1
1194.213   0.3405   0.1585   0.4325   1
1194.243   0.5734   0.1931   0.6262   1
1194.273   0.5527   0.1899   0.7362   1
1194.303   0.8714   0.2272   0.7956   1
1194.333   0.8772   0.2263   0.8339   1
1194.363   1.0900   0.2486   0.8622   1
1194.393   0.8315   0.2200   0.8840   1
1194.422   1.1423   0.2513   0.9010   1
1194.452   1.0216   0.2399   0.9144   1
1194.482   0.9765   0.2360   0.9254   1
1194.512   1.0121   0.2408   0.9343   1
1194.542   1.2407   0.2606   0.9418   1
1194.572   0.8441   0.2227   0.9480   1
1194.602   0.9977   0.2383   0.9533   1
1194.632   0.8452   0.2210   0.9578   1
1194.661   1.0988   0.2472   0.9617   1
1194.691   0.9695   0.2347   0.9651   1
1194.721   1.1201   0.2479   0.9681   1
1194.751   1.0467   0.2414   0.9707   1
1194.781   0.8597   0.2229   0.9729   1
1194.811   1.0238   0.2390   0.9750   1
1194.841   0.9128   0.2280   0.9768   1
1194.871   1.1343   0.2468   0.9784   1
1194.900   0.9944   0.2349   0.9799   1
1194.930   1.0115   0.2357   0.9812   1
1194.960   0.9977   0.2342   0.9824   1
1194.990   1.1155   0.2438   0.9834   1
1195.020   1.0328   0.2381   0.9844   1
1195.050   1.1370   0.2469   0.9853   1
1195.080   0.9175   0.2274   0.9862   1
1195.110   1.0529   0.2388   0.9869   1
1195.140   0.9875   0.2323   0.9876   1
1195.169   1.0160   0.2342   0.9882   1
1195.199   0.8873   0.2234   0.9888   1
1195.229   1.0064   0.2343   0.9894   1
1195.259   0.9094   0.2232   0.9899   1
1195.289   1.1246   0.2443   0.9904   1
1195.319   0.8974   0.2232   0.9908   1
1195.349   0.9836   0.2289   0.9912   1
1195.379   0.8781   0.2208   0.9916   1
1195.408   1.0382   0.2367   0.9920   1
1195.438   1.1213   0.2435   0.9923   1
1195.468   0.9551   0.2270   0.9926   1
1195.498   0.9593   0.2283   0.9929   1
1195.528   0.9550   0.2285   0.9932   1
1195.558   0.9906   0.2303   0.9935   1
1195.588   1.0785   0.2388   0.9937   1
1195.618   0.9148   0.2212   0.9939   1
1195.647   1.1141   0.2427   0.9942   1
1195.677   1.0002   0.2312   0.9944   1
1195.707   1.2234   0.2508   0.9946   1
1195.737   0.8398   0.2143   0.9948   1
1195.767   1.2264   0.2506   0.9949   1
1195.797   0.9356   0.2245   0.9951   1
1195.827   1.1083   0.2395   0.9953   1
1195.857   1.2026   0.2486   0.9954   1
1195.886   1.1203   0.2414   0.9956   1
1195.916   0.9325   0.2227   0.9957   1
1195.946   0.7848   0.2089   0.9958   1
1195.976   0.8895   0.2195   0.9960   1
1196.006   1.0282   0.2322   0.9961   1
1196.036   0.9375   0.2227   0.9962   1
1196.066   1.0499   0.2336   0.9963   1
1196.096   0.9781   0.2269   0.9964   1
1196.126   0.9460   0.2240   0.9965   1
1196.155   0.9855   0.2278   0.9966   1
1196.185   1.0361   0.2313   0.9967   1
1196.215   0.8559   0.2133   0.9968   1
1196.245   0.8772   0.2158   0.9969   1
1196.275   0.9783   0.2259   0.9970   1
1196.305   1.0295   0.2309   0.9970   1
1196.335   0.8622   0.2130   0.9971   1
1196.365   0.8772   0.2161   0.9972   1
1196.394   0.7558   0.2025   0.9973   1
1196.424   0.8454   0.2115   0.9973   1
1196.454   0.9563   0.2227   0.9974   1
1196.484   0.7868   0.2058   0.9975   1
1196.514   0.9297   0.2200   0.9975   1
1196.544   0.8946   0.2153   0.9976   1
1196.574   0.7613   0.2030   0.9976   1
1196.604   0.8892   0.2156   0.9977   1
1196.633   1.1071   0.2357   0.9977   1
1196.663   0.8388   0.2108   0.9978   1
1196.693   0.9003   0.2156   0.9978   1
1196.723   0.9133   0.2166   0.9979   1
1196.753   1.0258   0.2260   0.9979   1
1196.783   0.7569   0.2002   0.9980   1
1196.813   0.9203   0.2166   0.9980   1
1196.843   0.9183   0.2165   0.9981   1
1196.872   0.9435   0.2196   0.9981   1
1196.902   0.9402   0.2187   0.9981   1
1196.932   1.1445   0.2359   0.9982   1
1196.962   0.9617   0.2200   0.9982   1
1196.992   0.9992   0.2230   0.9983   1
1197.022   0.8315   0.2063   0.9983   1
1197.052   0.9588   0.2210   0.9983   1
1197.082   0.8568   0.2122   0.9984   1
1197.111   0.8532   0.2126   0.9984   1
1197.141   0.9927   0.2282   0.9984   1
1197.171   1.0505   0.2352   0.9985   1
1197.201   1.0664   0.2370   0.9985   1
1197.231   1.2948   0.2575   0.9985   1
1197.261   1.2237   0.2506   0.9985   1
1197.291   1.1238   0.2401   0.9986   1
1197.321   1.0844   0.2339   0.9986   1
1197.350   0.9938   0.2270   0.9986   1
1197.380   1.1341   0.2391   0.9986   1
1197.410   1.0553   0.2339   0.9987   1
1197.440   1.2653   0.2525   0.9987   1
1197.470   1.0622   0.2368   0.9987   1
1197.500   1.1295   0.2416   0.9987   1
1197.530   1.1187   0.2376   0.9988   1
1197.560   0.9929   0.2229   0.9988   1
1197.590   1.1591   0.2350   0.9988   1
1197.619   0.8168   0.2028   0.9988   1
1197.649   1.1838   0.2347   0.9988   1
1197.679   1.0571   0.2252   0.9989   1
1197.709   1.1610   0.2339   0.9989   1
1197.739   1.2338   0.2395   0.9989   1
1197.769   0.9979   0.2186   0.9989   1
1197.799   1.1149   0.2295   0.9989   1
1197.829   1.2431   0.2403   0.9989   1
1197.858   0.9593   0.2154   0.9990   1
1197.888   1.1334   0.2275   0.9990   1
1197.918   0.9658   0.2152   0.9990   1
1197.948   1.0161   0.2193   0.9990   1
1197.978   0.9593   0.2144   0.9990   1
1198.008   1.0430   0.2216   0.9990   1
1198.038   0.9981   0.2180   0.9990   1
