# Best-fit normalized data and profile from VoigtFit
# column 1 : Wavelength
# column 2 : Normalized flux
# column 3 : Normalized error
# column 4 : Best-fit profile
# column 5 : Pixel mask, 1=included, 0=excluded
1186.462   1.0750   0.2452   1.0000   1
1186.492   0.9726   0.2365   1.0000   1
1186.522   0.9357   0.2329   1.0000   1
1186.552   0.9636   0.2356   1.0000   1
1186.582   1.1908   0.2563   1.0000   1
1186.612   0.9980   0.2385   1.0000   1
1186.642   1.0374   0.2425   1.0000   1
1186.672   1.2435   0.2599   1.0000   1
1186.702   1.1189   0.2503   1.0000   1
1186.732   0.9367   0.2329   1.0000   1
1186.761   1.0103   0.2400   1.0000   1
1186.791   1.1104   0.2494   1.0000   1
1186.821   1.0349   0.2423   1.0000   1
1186.851   1.1026   0.2486   1.0000   1
1186.881   0.9859   0.2376   1.0000   1
1186.911   0.9569   0.2348   1.0000   1
1186.941   0.9586   0.2347   1.0000   1
1186.971   1.0725   0.2458   1.0000   1
1187.001   1.1238   0.2506   1.0000   1
1187.030   0.8859   0.2275   1.0000   1
1187.060   0.9634   0.2352   1.0000   1
1187.090   1.0752   0.2458   1.0000   1
1187.120   1.0795   0.2466   1.0000   1
1187.150   1.0528   0.2440   1.0000   1
1187.180   1.2448   0.2617   1.0000   1
1187.210   1.0581   0.2446   1.0000   1
1187.240   1.3901   0.2734   1.0000   1
1187.269   1.1028   0.2490   1.0000   1
1187.299   0.9238   0.2313   1.0000   1
1187.329   0.9177   0.2303   1.0000   1
1187.359   0.8494   0.2236   1.0000   1
1187.389   0.9747   0.2366   1.0000   1
1187.419   1.1426   0.2524   1.0000   1
1187.449   1.0621   0.2451   1.0000   1
1187.479   0.9750   0.2366   1.0000   1
1187.509   0.9477   0.2341   1.0000   1
1187.539   1.0519   0.2442   1.0000   1
1187.568   1.0804   0.2470   1.0000   1
1187.598   1.1003   0.2487   1.0000   1
1187.628   0.9359   0.2331   1.0000   1
1187.658   1.1920   0.2568   1.0000   1
1187.688   1.1155   0.2494   1.0000   1
1187.718   0.8578   0.2248   1.0000   1
1187.748   0.8862   0.2279   1.0000   1
1187.778   1.0517   0.2441   1.0000   1
1187.807   1.1371   0.2519   1.0000   1
1187.837   0.8659   0.2255   1.0000   1
1187.867   0.8503   0.2239   1.0000   1
1187.897   0.8842   0.2271   1.0000   1
1187.927   1.2112   0.2589   1.0000   1
1187.957   0.9956   0.2382   1.0000   1
1187.987   0.8952   0.2288   1.0000   1
1188.017   1.0421   0.2435   1.0000   1
1188.047   1.0669   0.2454   1.0000   1
1188.076   0.8610   0.2249   1.0000   1
1188.106   1.0821   0.2471   1.0000   1
1188.136   0.9358   0.2330   1.0000   1
1188.166   1.1852   0.2561   1.0000   1
1188.196   0.9919   0.2388   1.0000   1
1188.226   1.0291   0.2424   1.0000   1
1188.256   1.1785   0.2561   1.0000   1
1188.286   1.0071   0.2397   1.0000   1
1188.316   1.0384   0.2417   1.0000   1
1188.346   0.9740   0.2367   1.0000   1
1188.376   0.9967   0.2390   1.0000   1
1188.405   0.7730   0.2158   1.0000   1
1188.435   1.0929   0.2480   1.0000   1
1188.465   1.1487   0.2532   1.0000   1
1188.495   1.1828   0.2554   1.0000   1
1188.525   1.1011   0.2486   1.0000   1
1188.555   1.0842   0.2443   1.0000   1
1188.585   0.9187   0.2282   1.0000   1
1188.615   1.1469   0.2480   1.0000   1
1188.644   1.2483   0.2558   1.0000   1
1188.674   1.0677   0.2407   1.0000   1
1188.704   1.1228   0.2483   1.0000   1
1188.734   1.0095   0.2348   1.0000   1
1188.764   1.0192   0.2363   1.0000   1
1188.794   0.8961   0.2271   1.0000   1
1188.824   0.7190   0.2074   1.0000   1
1188.854   0.7650   0.2129   1.0000   1
1188.884   0.9960   0.2360   1.0000   1
1188.914   0.7539   0.2100   1.0000   1
1188.943   0.9700   0.2310   0.9999   1
1188.973   0.8047   0.2149   0.9999   1
1189.003   0.9396   0.2306   0.9999   1
1189.033   0.8065   0.2187   0.9999   1
1189.063   1.1217   0.2514   0.9999   1
1189.093   0.9344   0.2331   0.9999   1
1189.123   0.9746   0.2374   0.9999   1
1189.153   1.0306   0.2424   0.9999   1
1189.182   0.9758   0.2375   0.9998   1
1189.212   1.1961   0.2581   0.9998   1
1189.242   1.0891   0.2483   0.9997   1
1189.272   1.1227   0.2512   0.9996   1
1189.302   1.1477   0.2539   0.9995   1
1189.332   1.2785   0.2655   0.9994   1
1189.362   1.1410   0.2533   0.9992   1
1189.392   1.0926   0.2486   0.9990   1
1189.422   1.0156   0.2413   0.9987   1
1189.451   1.1260   0.2516   0.9983   1
1189.481   1.0604   0.2457   0.9978   1
1189.511   1.0346   0.2431   0.9971   1
1189.541   1.0360   0.2429   0.9964   1
1189.571   0.9677   0.2353   0.9954   1
1189.601   0.7390   0.2125   0.9942   1
1189.631   1.1153   0.2504   0.9927   1
1189.661   0.8908   0.2292   0.9909   1
1189.691   0.9490   0.2345   0.9887   1
1189.721   0.8148   0.2207   0.9860   1
1189.750   0.8992   0.2295   0.9828   1
1189.780   1.0754   0.2473   0.9791   1
1189.810   0.7037   0.2079   0.9747   1
1189.840   0.8960   0.2292   0.9695   1
1189.870   0.9126   0.2313   0.9635   1
1189.900   0.9372   0.2329   0.9566   1
1189.930   1.0690   0.2458   0.9487   1
1189.960   0.7667   0.2144   0.9396   1
1189.989   0.9735   0.2362   0.9288   1
1190.019   0.8096   0.2196   0.9155   1
1190.049   0.7115   0.2097   0.8974   1
1190.079   0.7290   0.2114   0.8709   1
1190.109   0.5658   0.1922   0.8284   1
1190.139   0.3740   0.1651   0.7622   1
1190.169   0.4610   0.1770   0.6660   1
1190.199   0.4260   0.1730   0.5401   1
1190.229   0.3564   0.1624   0.4002   1
1190.258   0.2048   0.1331   0.2686   1
1190.288   0.1496   0.1220   0.1657   1
1190.318   0.1484   0.1229   0.0970   1
1190.348   -0.0031   0.0731   0.0585   1
1190.378   0.0607   0.0970   0.0416   1
1190.408   0.1149   0.1142   0.0388   1
1190.438   0.0361   0.0893   0.0491   1
1190.468   0.0793   0.1044   0.0753   1
1190.498   0.0706   0.1017   0.1221   1
1190.527   0.1500   0.1235   0.1926   1
1190.557   0.2551   0.1443   0.2768   1
1190.587   0.2665   0.1456   0.3492   1
1190.617   0.3839   0.1627   0.3686   1
1190.647   0.2144   0.1356   0.3184   1
1190.677   0.2576   0.1424   0.2310   1
1190.707   0.2025   0.1327   0.1748   1
1190.737   0.1137   0.1122   0.1909   1
1190.767   0.2785   0.1479   0.2720   1
1190.796   0.3506   0.1592   0.3583   1
1190.826   0.3556   0.1599   0.3821   1
1190.856   0.3300   0.1564   0.3280   1
1190.886   0.3120   0.1526   0.2414   1
1190.916   0.2023   0.1323   0.1736   1
1190.946   0.1128   0.1139   0.1527   1
1190.976   0.1621   0.1261   0.1855   1
1191.006   0.2100   0.1358   0.2702   1
1191.036   0.3169   0.1561   0.3926   1
1191.065   0.4416   0.1735   0.5174   1
1191.095   0.7085   0.2098   0.6154   1
1191.125   0.6522   0.2030   0.6764   1
1191.155   0.8356   0.2230   0.7129   1
1191.185   0.7547   0.2148   0.7375   1
1191.215   0.7040   0.2092   0.7579   1
1191.245   0.7192   0.2103   0.7771   1
1191.275   0.9196   0.2325   0.7959   1
1191.305   0.7317   0.2126   0.8143   1
1191.334   0.8739   0.2276   0.8321   1
1191.364   0.9897   0.2397   0.8492   1
1191.394   1.0865   0.2489   0.8655   1
1191.424   0.9507   0.2351   0.8808   1
1191.454   0.9468   0.2354   0.8950   1
1191.484   0.9325   0.2340   0.9082   1
1191.514   0.8071   0.2211   0.9202   1
1191.544   0.7714   0.2159   0.9312   1
1191.574   0.9821   0.2384   0.9410   1
1191.604   0.9787   0.2387   0.9497   1
1191.633   1.0689   0.2473   0.9575   1
1191.663   0.9097   0.2316   0.9642   1
1191.693   0.9006   0.2311   0.9701   1
1191.723   1.0999   0.2503   0.9752   1
1191.753   1.1044   0.2509   0.9795   1
1191.783   0.9954   0.2407   0.9832   1
1191.813   1.0429   0.2446   0.9863   1
1191.843   1.0893   0.2494   0.9889   1
1191.873   1.2213   0.2598   0.9910   1
1191.903   1.0700   0.2479   0.9928   1
1191.932   0.9234   0.2329   0.9942   1
1191.962   1.0121   0.2422   0.9954   1
1191.992   0.8793   0.2282   0.9963   1
1192.022   0.9962   0.2403   0.9970   1
1192.052   1.1429   0.2547   0.9975   1
1192.082   0.9781   0.2387   0.9979   1
1192.112   1.2112   0.2608   0.9982   1
1192.142   1.0497   0.2457   0.9983   1
1192.171   1.0700   0.2479   0.9983   1
1192.201   1.0006   0.2413   0.9982   1
1192.231   0.9491   0.2364   0.9979   1
1192.261   1.0832   0.2493   0.9975   1
1192.291   1.0757   0.2483   0.9970   1
1192.321   0.8464   0.2258   0.9963   1
1192.351   0.9095   0.2324   0.9953   1
1192.381   1.0271   0.2434   0.9940   1
1192.411   0.8008   0.2206   0.9924   1
1192.440   0.8742   0.2288   0.9905   1
1192.470   0.8877   0.2291   0.9880   1
1192.500   0.8909   0.2277   0.9850   1
1192.530   0.9428   0.2358   0.9813   1
1192.560   0.8891   0.2303   0.9768   1
1192.590   0.9255   0.2336   0.9714   1
1192.620   0.9473   0.2352   0.9651   1
1192.650   0.9253   0.2339   0.9575   1
1192.680   0.9214   0.2335   0.9486   1
1192.710   1.0740   0.2481   0.9383   1
1192.739   0.9898   0.2405   0.9264   1
1192.769   0.9065   0.2320   0.9128   1
1192.799   1.0375   0.2451   0.8974   1
1192.829   1.0714   0.2485   0.8797   1
1192.859   0.9150   0.2331   0.8593   1
1192.889   0.8682   0.2275   0.8346   1
1192.919   0.9641   0.2382   0.8023   1
1192.949   0.9996   0.2414   0.7569   1
1192.978   0.8858   0.2302   0.6885   1
1193.008   0.6322   0.2013   0.5898   1
1193.038   0.7421   0.2147   0.4609   1
1193.068   0.5095   0.1833   0.3167   1
1193.098   0.2627   0.1476   0.1856   1
1193.128   0.3275   0.1589   0.0901   1
1193.158   0.0870   0.1074   0.0371   1
1193.188   0.0983   0.1113   0.0129   1
1193.218   0.0608   0.1001   0.0042   1
1193.247   0.0361   0.0909   0.0016   1
1193.277   0.0231   0.0860   0.0012   1
1193.307   0.0225   0.0864   0.0020   1
1193.337   0.0493   0.0969   0.0052   1
1193.367   0.0932   0.1100   0.0141   1
1193.397   0.1642   0.1270   0.0345   1
1193.427   0.1493   0.1246   0.0697   1
1193.457   0.3011   0.1547   0.1102   1
1193.487   0.1211   0.1160   0.1289   1
1193.517   0.1093   0.1128   0.1073   1
1193.546   0.1474   0.1218   0.0631   1
1193.576   0.0696   0.1019   0.0329   1
1193.606   0.1197   0.1139   0.0346   1
1193.636   0.0938   0.1088   0.0693   1
1193.666   0.1942   0.1290   0.1187   1
1193.696   0.1322   0.1160   0.1400   1
1193.726   0.0423   0.0921   0.1143   1
1193.756   0.0781   0.1050   0.0676   1
1193.785   0.1136   0.1140   0.0336   1
1193.815   0.0421   0.0922   0.0212   1
1193.845   0.1081   0.1142   0.0308   1
1193.875   0.0845   0.1066   0.0680   1
1193.905   0.2689   0.1455   0.1424   1
1193.935   0.3352   0.1549   0.2465   1
1193.965   0.3442   0.1571   0.3513   1
1193.995   0.3857   0.1634   0.4313   1
1194.025   0.4328   0.1696   0.4843   1
1194.055   0.5356   0.1843   0.5219   1
1194.084   0.6024   0.1916   0.5533   1
1194.114   0.4499   0.1742   0.5834   1
1194.144   0.6420   0.1986   0.6136   1
1194.174   0.8050   0.2181   0.6440   1
1194.204   0.6659   0.2016   0.6741   1
1194.234   0.6437   0.2011   0.7038   1
1194.264   0.7608   0.2126   0.7326   1
1194.294   0.6222   0.1978   0.7605   1
1194.324   0.8348   0.2200   0.7869   0
1194.353   0.5793   0.1936   0.8119   0
1194.383   0.8200   0.2206   0.8351   0
1194.413   0.8930   0.2250   0.8565   0
1194.443   0.7365   0.2089   0.8760   0
1194.473   0.7410   0.2116   0.8936   0
1194.503   0.7500   0.2165   0.9094   0
1194.533   0.6866   0.2093   0.9234   0
1194.563   0.6399   0.2034   0.9357   0
1194.593   0.7845   0.2203   0.9463   0
1194.622   0.6419   0.2039   0.9555   0
1194.652   0.6819   0.2086   0.9634   0
1194.682   0.6074   0.1976   0.9701   0
1194.712   0.5710   0.1948   0.9757   0
1194.742   0.5306   0.1893   0.9804   0
1194.772   0.6565   0.2058   0.9842   0
1194.802   0.6054   0.1995   0.9874   0
1194.832   0.6729   0.2076   0.9900   0
1194.862   0.6098   0.1994   0.9921   0
1194.891   0.4518   0.1788   0.9938   0
1194.921   0.5091   0.1868   0.9952   0
1194.951   0.4681   0.1812   0.9963   0
1194.981   0.5077   0.1868   0.9971   0
1195.011   0.4221   0.1747   0.9978   0
1195.041   0.5051   0.1854   0.9983   0
1195.071   0.5999   0.1972   0.9987   0
1195.101   0.5464   0.1922   0.9990   0
1195.131   0.5202   0.1886   0.9992   0
1195.161   0.6403   0.2038   0.9994   0
1195.190   0.5915   0.1978   0.9996   0
1195.220   0.6598   0.2060   0.9997   0
1195.250   0.7120   0.2126   0.9997   0
1195.280   0.6839   0.2093   0.9998   0
1195.310   0.8410   0.2272   0.9998   0
1195.340   0.6805   0.2092   0.9999   0
1195.370   0.7066   0.2118   0.9999   0
1195.400   0.7059   0.2115   0.9999   0
1195.430   0.6824   0.2093   0.9999   0
1195.459   0.7938   0.2219   0.9999   0
1195.489   0.9070   0.2339   0.9999   0
1195.519   0.8221   0.2251   0.9999   0
1195.549   1.0323   0.2469   0.9999   0
1195.579   0.9078   0.2339   0.9999   1
1195.609   1.0594   0.2486   0.9999   1
1195.639   1.0778   0.2511   1.0000   1
1195.669   1.0892   0.2520   1.0000   1
1195.699   0.8294   0.2253   1.0000   1
1195.728   0.9634   0.2400   1.0000   1
1195.758   1.0983   0.2528   1.0000   1
1195.788   1.0499   0.2485   1.0000   1
1195.818   1.0188   0.2447   1.0000   1
1195.848   1.0383   0.2476   1.0000   1
1195.878   1.0808   0.2518   1.0000   1
1195.908   0.9923   0.2425   1.0000   1
1195.938   1.0187   0.2455   1.0000   1
1195.968   1.0902   0.2528   1.0000   1
1195.997   1.1945   0.2623   1.0000   1
1196.027   1.1505   0.2584   1.0000   1
1196.057   0.7869   0.2214   1.0000   1
1196.087   1.1177   0.2550   1.0000   1
1196.117   0.9329   0.2366   1.0000   1
1196.147   0.7959   0.2217   1.0000   1
1196.177   1.1079   0.2544   1.0000   1
1196.207   1.0534   0.2491   1.0000   1
1196.237   1.1112   0.2549   1.0000   1
1196.267   1.0952   0.2529   1.0000   1
1196.296   1.0180   0.2456   1.0000   1
1196.326   1.1619   0.2596   1.0000   1
1196.356   1.2096   0.2641   1.0000   1
1196.386   0.9398   0.2382   1.0000   1
1196.416   1.0612   0.2506   1.0000   1
1196.446   1.2125   0.2643   1.0000   1
1196.476   1.0349   0.2478   1.0000   1
1196.506   1.1748   0.2606   1.0000   1
1196.535   1.1770   0.2609   1.0000   1
1196.565   0.9674   0.2412   1.0000   1
1196.595   1.0409   0.2485   1.0000   1
1196.625   1.0194   0.2462   1.0000   1
1196.655   1.0485   0.2493   1.0000   1
1196.685   1.3296   0.2747   1.0000   1
1196.715   1.0498   0.2495   1.0000   1
1196.745   0.9811   0.2421   1.0000   1
1196.775   1.2031   0.2638   1.0000   1
1196.805   1.0848   0.2517   1.0000   1
1196.834   1.2440   0.2669   1.0000   1
1196.864   1.1840   0.2613   1.0000   1
1196.894   0.9557   0.2383   1.0000   1
1196.924   1.0365   0.2449   1.0000   1
1196.954   1.1051   0.2489   1.0000   1
1196.984   1.1483   0.2513   1.0000   1
1197.014   1.0743   0.2463   1.0000   1
1197.044   0.9016   0.2301   1.0000   1
1197.074   0.8660   0.2279   1.0000   1
1197.103   0.7958   0.2160   1.0000   1
1197.133   0.9247   0.2331   1.0000   1
1197.163   0.5941   0.1962   1.0000   1
1197.193   0.6340   0.1997   1.0000   1
1197.223   0.7791   0.2183   1.0000   1
1197.253   0.8359   0.2239   1.0000   1
