# Best-fit normalized data and profile from VoigtFit
# column 1 : Wavelength
# column 2 : Normalized flux
# column 3 : Normalized error
# column 4 : Best-fit profile
# column 5 : Pixel mask, 1=included, 0=excluded
1389.133   1.2541   0.2528   1.0000   1
1389.162   0.8172   0.2115   1.0000   1
1389.193   0.9525   0.2242   1.0000   1
1389.222   1.1403   0.2429   1.0000   1
1389.252   0.9398   0.2246   1.0000   1
1389.282   0.9673   0.2271   1.0000   1
1389.312   1.0420   0.2341   1.0000   1
1389.342   1.0815   0.2377   1.0000   1
1389.372   1.0377   0.2332   1.0000   1
1389.402   0.8763   0.2181   1.0000   1
1389.432   1.0745   0.2369   1.0000   1
1389.462   1.0813   0.2379   1.0000   1
1389.492   1.0054   0.2306   1.0000   1
1389.522   0.6959   0.1987   1.0000   1
1389.552   0.9665   0.2269   1.0000   1
1389.582   1.0355   0.2337   1.0000   1
1389.612   1.0805   0.2379   1.0000   1
1389.642   1.0088   0.2310   1.0000   1
1389.672   1.1343   0.2427   1.0000   1
1389.702   0.8469   0.2147   1.0000   1
1389.732   1.0815   0.2380   1.0000   1
1389.762   0.9982   0.2303   1.0000   1
1389.792   1.0095   0.2296   1.0000   1
1389.822   1.1071   0.2394   1.0000   1
1389.852   1.0908   0.2387   1.0000   1
1389.882   0.8778   0.2185   1.0000   1
1389.912   1.0331   0.2325   1.0000   1
1389.942   0.9494   0.2257   1.0000   1
1389.972   1.0698   0.2371   1.0000   1
1390.002   1.1886   0.2477   1.0000   1
1390.032   1.0143   0.2319   1.0000   1
1390.062   1.0508   0.2351   1.0000   1
1390.092   1.0260   0.2324   1.0000   1
1390.122   1.1527   0.2445   1.0000   1
1390.152   1.0809   0.2380   1.0000   1
1390.182   1.1032   0.2382   1.0000   1
1390.212   1.0358   0.2317   1.0000   1
1390.242   1.0487   0.2315   1.0000   1
1390.272   0.9724   0.2216   1.0000   1
1390.302   1.1282   0.2339   1.0000   1
1390.332   1.2270   0.2447   1.0000   1
1390.362   0.7963   0.2061   1.0000   1
1390.392   0.9521   0.2230   1.0000   1
1390.422   1.3153   0.2513   1.0000   1
1390.451   1.2054   0.2441   1.0000   1
1390.482   1.1295   0.2371   1.0000   1
1390.511   1.0812   0.2314   1.0000   1
1390.542   1.0124   0.2282   1.0000   1
1390.571   1.0913   0.2347   1.0000   1
1390.601   0.7491   0.2010   1.0000   1
1390.631   0.9987   0.2273   1.0000   1
1390.661   0.9282   0.2217   1.0000   1
1390.691   0.9522   0.2250   1.0000   1
1390.721   0.8948   0.2206   1.0000   1
1390.751   0.8981   0.2208   1.0000   1
1390.781   1.2390   0.2516   1.0000   1
1390.811   0.9531   0.2262   1.0000   1
1390.841   0.9100   0.2222   1.0000   1
1390.871   0.9371   0.2247   1.0000   1
1390.901   1.0546   0.2356   1.0000   1
1390.931   0.9792   0.2287   1.0000   1
1390.961   1.1162   0.2412   1.0000   1
1390.991   0.9357   0.2245   1.0000   1
1391.021   1.2050   0.2485   1.0000   1
1391.051   0.8820   0.2189   1.0000   1
1391.081   1.0929   0.2396   1.0000   1
1391.111   1.1099   0.2412   1.0000   1
1391.141   0.9326   0.2246   1.0000   1
1391.171   1.0152   0.2317   1.0000   1
1391.201   1.2217   0.2508   1.0000   1
1391.231   0.9236   0.2233   1.0000   1
1391.261   1.0768   0.2375   1.0000   1
1391.291   0.9004   0.2211   1.0000   1
1391.321   1.0319   0.2337   1.0000   1
1391.351   1.0988   0.2401   1.0000   1
1391.381   0.9685   0.2270   1.0000   1
1391.411   0.9642   0.2275   1.0000   1
1391.441   1.0307   0.2335   1.0000   1
1391.471   1.0478   0.2340   1.0000   1
1391.501   0.9843   0.2294   1.0000   1
1391.531   1.0602   0.2363   1.0000   1
1391.561   0.8558   0.2164   1.0000   1
1391.591   0.9709   0.2280   1.0000   1
1391.621   1.0051   0.2315   1.0000   1
1391.651   0.9210   0.2231   1.0000   1
1391.681   1.3710   0.2632   0.9999   1
1391.711   0.9196   0.2231   0.9999   1
1391.741   0.9279   0.2240   0.9999   1
1391.770   1.0853   0.2375   0.9999   1
1391.801   0.9045   0.2216   0.9999   1
1391.830   1.0010   0.2312   0.9999   1
1391.861   0.9747   0.2277   0.9998   1
1391.890   1.0019   0.2299   0.9998   1
1391.920   0.9715   0.2276   0.9997   1
1391.950   1.0609   0.2362   0.9997   1
1391.980   0.8472   0.2158   0.9996   1
1392.010   1.0408   0.2350   0.9995   1
1392.040   1.0317   0.2339   0.9995   1
1392.070   0.9774   0.2291   0.9993   1
1392.100   0.8525   0.2166   0.9992   1
1392.130   1.1247   0.2427   0.9991   1
1392.160   0.9146   0.2217   0.9989   1
1392.190   1.0324   0.2302   0.9987   1
1392.220   1.0620   0.2344   0.9984   1
1392.250   1.1565   0.2365   0.9981   1
1392.280   1.0124   0.2269   0.9978   1
1392.310   1.0691   0.2303   0.9974   1
1392.340   1.1407   0.2393   0.9970   1
1392.370   1.1227   0.2364   0.9964   1
1392.400   0.8256   0.2092   0.9958   1
1392.430   1.0590   0.2305   0.9952   1
1392.460   0.8644   0.2106   0.9944   1
1392.490   1.0674   0.2318   0.9935   1
1392.520   0.8183   0.2078   0.9925   1
1392.550   0.9697   0.2247   0.9913   1
1392.580   0.8869   0.2173   0.9900   1
1392.610   0.9828   0.2264   0.9886   1
1392.640   0.7947   0.2083   0.9869   1
1392.670   0.7876   0.2100   0.9851   1
1392.700   0.8829   0.2199   0.9831   1
1392.730   1.0500   0.2362   0.9808   1
1392.760   1.0203   0.2331   0.9783   1
1392.790   0.7839   0.2098   0.9755   1
1392.820   0.7994   0.2111   0.9725   1
1392.850   0.9684   0.2284   0.9692   1
1392.880   1.0006   0.2313   0.9655   1
1392.910   0.7779   0.2086   0.9615   1
1392.940   0.9345   0.2241   0.9572   1
1392.970   0.8890   0.2207   0.9525   1
1393.000   1.0334   0.2347   0.9475   1
1393.030   0.9604   0.2277   0.9421   1
1393.060   0.9288   0.2248   0.9363   1
1393.090   0.9675   0.2283   0.9301   1
1393.120   1.1456   0.2445   0.9235   1
1393.149   0.7947   0.2100   0.9166   1
1393.180   0.8352   0.2147   0.9093   1
1393.209   0.9955   0.2312   0.9016   1
1393.239   0.9667   0.2284   0.8935   1
1393.270   1.1325   0.2437   0.8851   1
1393.300   0.9104   0.2231   0.8761   1
1393.330   0.8068   0.2118   0.8664   1
1393.359   1.0053   0.2323   0.8553   1
1393.389   0.8945   0.2213   0.8413   1
1393.419   0.7711   0.2060   0.8215   1
1393.449   0.6608   0.1965   0.7917   1
1393.479   0.8810   0.2198   0.7467   1
1393.509   0.9104   0.2229   0.6811   1
1393.539   0.5007   0.1760   0.5951   1
1393.569   0.4212   0.1659   0.4935   1
1393.599   0.4340   0.1664   0.3883   1
1393.629   0.3711   0.1578   0.2943   1
1393.659   0.4357   0.1679   0.2211   1
1393.689   0.1448   0.1135   0.1727   1
1393.719   0.0805   0.0997   0.1500   1
1393.749   0.1944   0.1271   0.1502   1
1393.779   0.1560   0.1186   0.1733   1
1393.809   0.2430   0.1318   0.2190   1
1393.839   0.2841   0.1433   0.2849   1
1393.869   0.3767   0.1593   0.3653   1
1393.899   0.4283   0.1667   0.4488   1
1393.929   0.6101   0.1907   0.5225   1
1393.959   0.5944   0.1885   0.5784   1
1393.989   0.5683   0.1844   0.6118   1
1394.019   0.6273   0.1928   0.6180   1
1394.049   0.6153   0.1910   0.5930   1
1394.079   0.3953   0.1619   0.5583   1
1394.109   0.5298   0.1807   0.5560   1
1394.139   0.6094   0.1907   0.5790   1
1394.169   0.7234   0.2039   0.5893   1
1394.199   0.5583   0.1844   0.5823   1
1394.229   0.6602   0.1966   0.5694   1
1394.259   0.5966   0.1885   0.5562   1
1394.289   0.4545   0.1702   0.5442   1
1394.319   0.7643   0.2073   0.5339   1
1394.349   0.4044   0.1635   0.5261   1
1394.379   0.5406   0.1816   0.5213   1
1394.409   0.5498   0.1818   0.5199   1
1394.439   0.6128   0.1909   0.5222   1
1394.469   0.6030   0.1900   0.5283   1
1394.499   0.5899   0.1880   0.5382   1
1394.529   0.5448   0.1828   0.5517   1
1394.559   0.6395   0.1937   0.5685   1
1394.589   0.5590   0.1846   0.5881   1
1394.619   0.6188   0.1919   0.6099   1
1394.649   0.5664   0.1856   0.6332   1
1394.679   0.6366   0.1936   0.6572   1
1394.709   0.4859   0.1752   0.6813   1
1394.738   0.8736   0.2201   0.7048   1
1394.769   0.8927   0.2221   0.7273   1
1394.799   0.6166   0.1909   0.7484   1
1394.828   0.6873   0.2001   0.7679   1
1394.859   0.8450   0.2173   0.7858   1
1394.888   0.7557   0.2079   0.8020   1
1394.918   1.0509   0.2374   0.8168   1
1394.948   0.8856   0.2216   0.8303   1
1394.978   0.8785   0.2193   0.8426   1
1395.008   0.7703   0.2087   0.8539   1
1395.038   0.8340   0.2157   0.8645   1
1395.068   0.9176   0.2246   0.8744   1
1395.098   0.8578   0.2187   0.8836   1
1395.128   1.0595   0.2374   0.8924   1
1395.158   1.0667   0.2374   0.9007   1
1395.188   0.8804   0.2209   0.9085   1
1395.218   0.7586   0.2059   0.9160   1
1395.248   0.7271   0.2026   0.9230   1
1395.278   0.8707   0.2174   0.9296   1
1395.308   0.9637   0.2235   0.9358   1
1395.338   1.0022   0.2266   0.9416   1
1395.368   1.0772   0.2321   0.9471   1
1395.398   0.9576   0.2243   0.9521   1
1395.428   1.0646   0.2333   0.9568   1
1395.458   0.8419   0.2107   0.9612   1
1395.488   0.8712   0.2156   0.9652   1
1395.518   0.9505   0.2204   0.9689   1
1395.548   1.0749   0.2344   0.9723   1
1395.578   1.0447   0.2314   0.9753   1
1395.608   1.1460   0.2368   0.9781   1
1395.638   1.0387   0.2262   0.9806   1
1395.668   1.0386   0.2271   0.9829   1
1395.698   0.9713   0.2226   0.9850   1
1395.728   1.0333   0.2239   0.9868   1
1395.758   1.2148   0.2440   0.9885   1
1395.788   1.0589   0.2315   0.9899   1
1395.818   1.0208   0.2295   0.9912   1
1395.848   1.1460   0.2391   0.9924   1
1395.878   1.1121   0.2370   0.9934   1
1395.908   1.2738   0.2481   0.9943   1
1395.938   1.0570   0.2319   0.9951   1
1395.968   0.8607   0.2153   0.9958   1
1395.998   0.9280   0.2203   0.9964   1
1396.028   0.7995   0.2104   0.9969   1
1396.058   0.8755   0.2178   0.9974   1
1396.088   0.8708   0.2193   0.9978   1
1396.118   0.8213   0.2150   0.9981   1
1396.148   1.0169   0.2343   0.9984   1
1396.178   1.1019   0.2422   0.9986   1
1396.208   1.0147   0.2345   0.9989   1
1396.238   0.9713   0.2306   0.9990   1
1396.268   1.0543   0.2385   0.9992   1
1396.298   1.1135   0.2437   0.9993   1
1396.328   1.0261   0.2359   0.9994   1
1396.358   1.0564   0.2383   0.9995   1
1396.388   0.9697   0.2297   0.9996   1
1396.417   0.9458   0.2281   0.9997   1
1396.448   0.9247   0.2251   0.9997   1
1396.477   0.9249   0.2253   0.9998   1
1396.507   1.1056   0.2430   0.9998   1
1396.537   0.9493   0.2277   0.9999   1
1396.567   0.9763   0.2299   0.9999   1
1396.597   1.1995   0.2516   0.9999   1
1396.627   1.1339   0.2452   0.9999   1
1396.657   0.8650   0.2195   0.9999   1
1396.688   1.1460   0.2468   0.9999   1
1396.717   0.9401   0.2276   1.0000   1
1396.747   1.1034   0.2430   1.0000   1
1396.778   0.8970   0.2228   1.0000   1
1396.807   0.9004   0.2235   1.0000   1
1396.837   0.9832   0.2317   1.0000   1
1396.867   0.9502   0.2282   1.0000   1
1396.897   0.9380   0.2274   1.0000   1
1396.927   0.9162   0.2255   1.0000   1
1396.957   0.9995   0.2330   1.0000   1
1396.987   0.8037   0.2141   1.0000   1
1397.017   0.9779   0.2314   1.0000   1
1397.047   0.9699   0.2310   1.0000   1
1397.077   0.9518   0.2283   1.0000   1
1397.107   0.8454   0.2180   1.0000   1
1397.137   1.0595   0.2391   1.0000   1
1397.167   1.0659   0.2399   1.0000   1
1397.197   1.0136   0.2353   1.0000   1
1397.227   1.0675   0.2401   1.0000   1
1397.257   1.0123   0.2349   1.0000   1
1397.287   1.0618   0.2383   1.0000   1
1397.317   1.0702   0.2401   1.0000   1
1397.347   0.9826   0.2317   1.0000   1
1397.377   0.9321   0.2271   1.0000   1
1397.407   1.0576   0.2390   1.0000   1
1397.437   1.0523   0.2381   1.0000   1
1397.467   0.9431   0.2281   1.0000   1
1397.497   0.8535   0.2181   1.0000   1
1397.527   0.9347   0.2274   1.0000   1
1397.557   1.0921   0.2417   1.0000   1
1397.587   1.0784   0.2411   1.0000   1
1397.617   1.0133   0.2351   1.0000   1
1397.647   1.0860   0.2416   1.0000   1
1397.677   0.8618   0.2200   1.0000   1
1397.707   1.1042   0.2432   1.0000   1
1397.737   1.0300   0.2367   1.0000   1
1397.767   1.1628   0.2487   1.0000   1
1397.797   1.1010   0.2432   1.0000   1
1397.827   1.1288   0.2453   1.0000   1
1397.857   1.0506   0.2386   1.0000   1
1397.887   1.0330   0.2358   1.0000   1
1397.917   0.8997   0.2239   1.0000   1
1397.947   0.8917   0.2218   1.0000   1
1397.977   0.9011   0.2240   1.0000   1
1398.007   1.1821   0.2498   1.0000   1
1398.037   1.0572   0.2390   1.0000   1
1398.067   0.8244   0.2163   1.0000   1
1398.097   1.0590   0.2392   1.0000   1
1398.127   0.8780   0.2218   1.0000   1
1398.157   0.9535   0.2283   1.0000   1
1398.187   1.0391   0.2381   1.0000   1
1398.217   0.8922   0.2234   1.0000   1
1398.247   0.9255   0.2271   1.0000   1
1398.277   0.9122   0.2243   1.0000   1
1398.307   0.9646   0.2307   1.0000   1
1398.337   1.0068   0.2349   1.0000   1
1398.367   1.0670   0.2408   1.0000   1
1398.397   0.9222   0.2268   1.0000   1
1398.426   1.0311   0.2370   1.0000   1
1398.457   1.2253   0.2551   1.0000   1
1398.487   1.1868   0.2513   1.0000   1
1398.516   0.8556   0.2195   1.0000   1
1398.546   0.9594   0.2260   1.0000   1
1398.576   1.0568   0.2334   1.0000   1
1398.606   1.0523   0.2325   1.0000   1
1398.636   1.0584   0.2339   1.0000   1
1398.666   1.0112   0.2310   1.0000   1
1398.696   0.9990   0.2268   1.0000   1
1398.726   0.9702   0.2261   1.0000   1
1398.756   0.9658   0.2255   1.0000   1
1398.786   1.1427   0.2398   1.0000   1
1398.816   1.0781   0.2359   1.0000   1
1398.846   0.8592   0.2166   1.0000   1
1398.876   1.0985   0.2351   1.0000   1
1398.906   1.0349   0.2286   1.0000   1
1398.936   1.0950   0.2382   1.0000   1
1398.966   1.0343   0.2333   1.0000   1
1398.996   1.0817   0.2385   1.0000   1
1399.026   1.1073   0.2434   1.0000   1
1399.056   1.1012   0.2436   1.0000   1
1399.086   0.9389   0.2289   1.0000   1
1399.116   1.0397   0.2380   1.0000   1
1399.146   0.7641   0.2090   1.0000   1
1399.176   1.1205   0.2459   1.0000   1
1399.206   1.0250   0.2371   1.0000   1
1399.236   1.0643   0.2404   1.0000   1
1399.266   0.9200   0.2264   1.0000   1
1399.296   1.0972   0.2433   1.0000   1
1399.326   1.0187   0.2366   1.0000   1
1399.356   1.1109   0.2453   1.0000   1
1399.386   1.1801   0.2517   1.0000   1
1399.416   0.8577   0.2206   1.0000   1
1399.446   1.0592   0.2398   1.0000   1
1399.476   0.8616   0.2208   1.0000   1
1399.506   0.9207   0.2262   1.0000   1
1399.536   0.9464   0.2292   1.0000   1
1399.566   0.8024   0.2144   1.0000   1
1399.596   0.9145   0.2267   1.0000   1
1399.626   0.8983   0.2247   1.0000   1
1399.656   0.7590   0.2104   1.0000   1
1399.686   0.9446   0.2289   1.0000   1
1399.716   0.9731   0.2319   1.0000   1
1399.746   0.8106   0.2160   1.0000   1
1399.776   1.1666   0.2505   1.0000   1
1399.806   0.8025   0.2145   1.0000   1
1399.836   1.0691   0.2417   1.0000   1
1399.866   1.0448   0.2394   1.0000   1
1399.896   0.8802   0.2232   1.0000   1
1399.926   0.9555   0.2307   1.0000   1
1399.956   0.9950   0.2347   1.0000   1
1399.986   1.0103   0.2361   1.0000   1
1400.016   1.0710   0.2419   1.0000   1
1400.046   1.0115   0.2363   1.0000   1
1400.076   0.9594   0.2285   1.0000   1
1400.106   1.1781   0.2518   1.0000   1
1400.136   0.8582   0.2212   1.0000   1
1400.166   0.9423   0.2298   1.0000   1
1400.196   0.9871   0.2339   1.0000   1
1400.226   1.1436   0.2487   1.0000   1
1400.256   1.1114   0.2458   1.0000   1
1400.286   1.1323   0.2477   1.0000   1
1400.316   0.9892   0.2333   1.0000   1
1400.346   0.9496   0.2306   1.0000   1
1400.376   0.9299   0.2286   1.0000   1
1400.406   0.9364   0.2293   1.0000   1
1400.436   1.1940   0.2525   1.0000   1
1400.466   0.9419   0.2290   1.0000   1
1400.496   0.9753   0.2325   1.0000   1
1400.526   0.9575   0.2266   1.0000   1
1400.556   1.0476   0.2344   1.0000   1
1400.586   1.1448   0.2404   1.0000   1
1400.616   1.0070   0.2304   1.0000   1
1400.646   1.0281   0.2327   1.0000   1
1400.676   0.9228   0.2199   1.0000   1
1400.706   1.0108   0.2335   1.0000   1
1400.736   0.9688   0.2292   1.0000   1
1400.765   1.0335   0.2360   1.0000   1
1400.796   1.0274   0.2339   0.9999   1
1400.826   0.9787   0.2278   0.9999   1
1400.855   0.9830   0.2287   0.9999   1
1400.886   1.0052   0.2304   0.9999   1
1400.916   1.1371   0.2434   0.9999   1
1400.945   0.8359   0.2146   0.9999   1
1400.975   1.1478   0.2459   0.9998   1
1401.005   1.0222   0.2361   0.9998   1
1401.035   0.8634   0.2224   0.9997   1
1401.065   0.9629   0.2323   0.9997   1
1401.095   1.1636   0.2507   0.9996   1
1401.125   1.2737   0.2608   0.9996   1
1401.155   1.0726   0.2427   0.9995   1
1401.185   1.2354   0.2569   0.9994   1
1401.215   1.0621   0.2414   0.9993   1
1401.245   0.9717   0.2327   0.9991   1
1401.275   1.0507   0.2401   0.9990   1
1401.305   1.0235   0.2383   0.9988   1
1401.335   1.1340   0.2483   0.9986   1
1401.365   0.9940   0.2357   0.9983   1
1401.395   1.0234   0.2386   0.9981   1
1401.425   0.8623   0.2226   0.9977   1
1401.455   0.9144   0.2276   0.9974   1
1401.485   1.0188   0.2382   0.9970   1
1401.515   1.0437   0.2404   0.9965   1
1401.545   1.2430   0.2585   0.9960   1
1401.575   1.1196   0.2475   0.9954   1
1401.605   1.1180   0.2477   0.9947   1
1401.635   1.0337   0.2395   0.9939   1
1401.665   0.8666   0.2233   0.9930   1
1401.695   0.8947   0.2261   0.9921   1
1401.725   1.1938   0.2542   0.9910   1
1401.755   0.9893   0.2347   0.9898   1
1401.785   1.1494   0.2500   0.9885   1
1401.815   0.8985   0.2266   0.9871   1
1401.845   0.8890   0.2239   0.9855   1
1401.875   1.0310   0.2396   0.9837   1
1401.905   0.9665   0.2329   0.9818   1
1401.935   1.0526   0.2418   0.9798   1
1401.965   0.9141   0.2278   0.9775   1
1401.995   0.8726   0.2232   0.9751   1
1402.025   0.8424   0.2209   0.9724   1
1402.055   1.0627   0.2420   0.9696   1
1402.085   0.8841   0.2248   0.9666   1
1402.115   1.1054   0.2467   0.9634   1
1402.145   0.9329   0.2300   0.9599   1
1402.175   0.8492   0.2201   0.9563   1
1402.205   0.9634   0.2330   0.9524   1
1402.235   0.9105   0.2279   0.9484   1
1402.265   1.1169   0.2475   0.9441   1
1402.295   0.9215   0.2285   0.9396   1
1402.325   0.8521   0.2220   0.9348   1
1402.355   0.9976   0.2365   0.9294   1
1402.385   0.9110   0.2275   0.9230   1
1402.415   0.8450   0.2213   0.9144   1
1402.445   1.1145   0.2476   0.9016   1
1402.475   0.8717   0.2227   0.8818   1
1402.505   0.7398   0.2095   0.8508   1
1402.535   0.8199   0.2182   0.8055   1
1402.565   0.7841   0.2137   0.7442   1
1402.595   0.6537   0.1999   0.6693   1
1402.625   0.6982   0.2049   0.5881   1
1402.655   0.3233   0.1543   0.5110   1
1402.685   0.3911   0.1651   0.4473   1
1402.715   0.3557   0.1598   0.4055   1
1402.745   0.4280   0.1691   0.3887   1
1402.775   0.5041   0.1806   0.3985   1
1402.805   0.5562   0.1881   0.4332   1
1402.835   0.4818   0.1774   0.4878   1
1402.865   0.4552   0.1723   0.5553   1
1402.895   0.5915   0.1926   0.6255   1
1402.925   0.6558   0.1996   0.6884   1
1402.955   0.7361   0.2093   0.7379   1
1402.985   0.7677   0.2130   0.7715   1
1403.015   0.6295   0.1974   0.7905   1
1403.045   0.9168   0.2288   0.7985   1
1403.075   0.9073   0.2278   0.7988   1
1403.105   0.7578   0.2116   0.7949   1
1403.135   0.8595   0.2230   0.7889   1
1403.165   0.8175   0.2189   0.7817   1
1403.195   0.8575   0.2229   0.7735   1
1403.225   0.6594   0.2003   0.7646   1
1403.255   0.7943   0.2162   0.7557   1
1403.285   0.7402   0.2098   0.7472   1
1403.315   0.5960   0.1933   0.7394   1
1403.345   0.6508   0.2000   0.7330   1
1403.374   0.6455   0.1993   0.7282   1
1403.405   0.7565   0.2116   0.7254   1
1403.435   0.5916   0.1931   0.7250   1
1403.465   0.7546   0.2119   0.7270   1
1403.495   0.5982   0.1933   0.7317   1
1403.525   0.6319   0.1980   0.7388   1
1403.555   0.8793   0.2230   0.7482   1
1403.585   0.9397   0.2287   0.7596   1
1403.615   0.8056   0.2129   0.7724   1
1403.645   0.7080   0.2000   0.7864   1
1403.675   0.6727   0.2002   0.8010   1
1403.705   0.8467   0.2173   0.8156   1
1403.735   0.9862   0.2306   0.8300   1
1403.764   0.9883   0.2298   0.8438   1
1403.795   1.0299   0.2358   0.8567   1
1403.825   0.7048   0.1977   0.8686   1
1403.854   1.0103   0.2296   0.8795   1
1403.885   0.8951   0.2190   0.8893   1
1403.915   0.9016   0.2182   0.8981   1
1403.944   0.7982   0.2082   0.9061   1
1403.975   0.9821   0.2248   0.9133   1
1404.005   0.8538   0.2139   0.9198   1
1404.034   0.7820   0.2091   0.9258   1
1404.064   0.8876   0.2212   0.9313   1
1404.094   0.9091   0.2245   0.9365   1
1404.124   1.0573   0.2387   0.9413   1
1404.154   1.1571   0.2479   0.9458   1
1404.184   0.9656   0.2285   0.9501   1
1404.214   1.2050   0.2477   0.9541   1
1404.244   0.8901   0.2209   0.9579   1
1404.274   0.9429   0.2246   0.9615   1
1404.304   0.7752   0.2114   0.9648   1
1404.334   0.9397   0.2282   0.9680   1
1404.364   0.9128   0.2286   0.9709   1
1404.394   1.0195   0.2380   0.9737   1
1404.424   1.0972   0.2460   0.9762   1
1404.454   0.8992   0.2281   0.9786   1
1404.484   0.8305   0.2207   0.9807   1
1404.514   1.3002   0.2639   0.9827   1
1404.544   1.1609   0.2533   0.9846   1
1404.574   1.0264   0.2406   0.9862   1
1404.604   0.8272   0.2207   0.9877   1
1404.634   0.7919   0.2168   0.9891   1
1404.664   0.9938   0.2373   0.9904   1
1404.694   0.9278   0.2306   0.9915   1
1404.724   0.9375   0.2317   0.9925   1
1404.754   0.8220   0.2199   0.9935   1
1404.784   0.8052   0.2185   0.9943   1
1404.814   1.0844   0.2460   0.9950   1
1404.844   0.8448   0.2226   0.9956   1
1404.874   1.1468   0.2523   0.9962   1
1404.904   1.0131   0.2398   0.9967   1
1404.934   1.2653   0.2629   0.9972   1
1404.964   0.9670   0.2352   0.9976   1
1404.994   1.0931   0.2472   0.9979   1
1405.024   0.9577   0.2342   0.9982   1
1405.054   0.9191   0.2304   0.9985   1
1405.084   0.9336   0.2316   0.9987   1
1405.114   0.7684   0.2141   0.9989   1
1405.144   1.0208   0.2404   0.9990   1
1405.174   1.2345   0.2600   0.9992   1
1405.204   0.9397   0.2327   0.9993   1
1405.234   0.9806   0.2364   0.9994   1
1405.264   1.0202   0.2406   0.9995   1
1405.294   0.7649   0.2143   0.9996   1
1405.324   0.8564   0.2241   0.9997   1
1405.354   1.0645   0.2443   0.9997   1
1405.384   1.0716   0.2449   0.9998   1
1405.414   0.9578   0.2341   0.9998   1
1405.444   1.0142   0.2401   0.9998   1
1405.474   0.9003   0.2281   0.9999   1
1405.504   0.9571   0.2346   0.9999   1
1405.534   0.9149   0.2304   0.9999   1
1405.564   1.4424   0.2780   0.9999   1
1405.594   0.8875   0.2276   0.9999   1
1405.624   1.0207   0.2406   0.9999   1
1405.654   1.0055   0.2391   1.0000   1
1405.684   1.0819   0.2467   1.0000   1
1405.714   0.9488   0.2336   1.0000   1
1405.744   0.9685   0.2346   1.0000   1
1405.774   1.1460   0.2529   1.0000   1
1405.804   1.0601   0.2445   1.0000   1
1405.834   0.7511   0.2133   1.0000   1
1405.864   1.0362   0.2427   1.0000   1
1405.894   0.9258   0.2319   1.0000   1
1405.924   0.9430   0.2334   1.0000   1
1405.954   0.9818   0.2369   1.0000   1
1405.984   0.9690   0.2359   1.0000   1
1406.014   1.0155   0.2407   1.0000   1
1406.044   1.0014   0.2385   1.0000   1
1406.074   1.0492   0.2438   1.0000   1
1406.104   1.0825   0.2470   1.0000   1
1406.134   0.9294   0.2316   1.0000   1
1406.164   0.8705   0.2257   1.0000   1
1406.194   1.0748   0.2461   1.0000   1
1406.224   0.9939   0.2384   1.0000   1
1406.254   1.1107   0.2497   1.0000   1
1406.284   1.0385   0.2430   1.0000   1
1406.314   1.0123   0.2401   1.0000   1
1406.344   0.9965   0.2390   1.0000   1
1406.374   1.0085   0.2402   1.0000   1
1406.404   0.9195   0.2312   1.0000   1
1406.434   0.9451   0.2339   1.0000   1
1406.464   1.1017   0.2490   1.0000   1
1406.494   0.9534   0.2346   1.0000   1
1406.524   0.9871   0.2370   1.0000   1
1406.554   0.9448   0.2340   1.0000   1
1406.584   0.7806   0.2165   1.0000   1
1406.614   0.7770   0.2164   1.0000   1
1406.644   0.9462   0.2342   1.0000   1
1406.674   1.0136   0.2403   1.0000   1
1406.704   0.9875   0.2377   1.0000   1
1406.734   1.0865   0.2476   1.0000   1
1406.764   1.0201   0.2399   1.0000   1
1406.794   1.1256   0.2482   1.0000   1
1406.824   1.0902   0.2447   1.0000   1
1406.854   1.1588   0.2496   1.0000   1
1406.884   1.1751   0.2519   1.0000   1
1406.914   1.1607   0.2490   1.0000   1
1406.944   1.2550   0.2569   1.0000   1
1406.974   1.1609   0.2486   1.0000   1
1407.004   1.1379   0.2482   1.0000   1
1407.034   1.0099   0.2356   1.0000   1
1407.064   1.0067   0.2371   1.0000   1
1407.094   1.1030   0.2429   1.0000   1
1407.124   1.0264   0.2367   1.0000   1
1407.154   1.3000   0.2598   1.0000   1
1407.184   1.1976   0.2473   1.0000   1
1407.214   1.1277   0.2421   1.0000   1
1407.244   0.9680   0.2296   1.0000   1
1407.274   1.0318   0.2379   1.0000   1
1407.304   0.9848   0.2351   1.0000   1
1407.334   1.0303   0.2409   1.0000   1
1407.364   1.1344   0.2512   1.0000   1
1407.394   1.0566   0.2456   1.0000   1
1407.424   1.0818   0.2477   1.0000   1
