# Best-fit normalized data and profile from VoigtFit
# column 1 : Wavelength
# column 2 : Normalized flux
# column 3 : Normalized error
# column 4 : Best-fit profile
# column 5 : Pixel mask, 1=included, 0=excluded
1543.052   1.0079   0.2776   1.0000   1
1543.089   0.9204   0.2689   1.0000   1
1543.125   0.9326   0.2699   1.0000   1
1543.162   0.9207   0.2685   1.0000   1
1543.199   1.0330   0.2798   1.0000   1
1543.236   1.0454   0.2808   1.0000   1
1543.272   0.9208   0.2668   1.0000   1
1543.309   0.8455   0.2624   1.0000   1
1543.346   1.1203   0.2867   1.0000   1
1543.382   1.1084   0.2865   1.0000   1
1543.419   0.8951   0.2645   1.0000   1
1543.456   1.0083   0.2773   1.0000   1
1543.492   0.8831   0.2663   1.0000   1
1543.529   1.2326   0.2964   1.0000   1
1543.566   1.0464   0.2814   1.0000   1
1543.603   1.0832   0.2847   1.0000   1
1543.639   0.9963   0.2767   1.0000   1
1543.676   0.9589   0.2735   1.0000   1
1543.713   1.1219   0.2879   1.0000   1
1543.749   0.9220   0.2689   1.0000   1
1543.786   0.9952   0.2751   1.0000   1
1543.823   0.8712   0.2642   1.0000   1
1543.860   1.1212   0.2880   1.0000   1
1543.896   0.8964   0.2658   1.0000   1
1543.933   1.2977   0.3027   1.0000   1
1543.970   1.0360   0.2801   1.0000   1
1544.006   1.0236   0.2786   1.0000   1
1544.043   1.0359   0.2801   1.0000   1
1544.080   1.0864   0.2847   1.0000   1
1544.117   1.0749   0.2842   1.0000   1
1544.153   0.9247   0.2702   1.0000   1
1544.190   1.1133   0.2883   1.0000   1
1544.227   0.9375   0.2711   1.0000   1
1544.263   0.9877   0.2755   1.0000   1
1544.300   0.9878   0.2764   1.0000   1
1544.337   1.1507   0.2913   1.0000   1
1544.374   0.9249   0.2709   1.0000   1
1544.410   0.8071   0.2612   1.0000   1
1544.447   1.1308   0.2929   1.0000   1
1544.484   0.9814   0.2814   1.0000   1
1544.520   0.9052   0.2746   1.0000   1
1544.557   0.9141   0.2743   1.0000   1
1544.594   0.9775   0.2810   1.0000   1
1544.631   0.9775   0.2787   1.0000   1
1544.667   0.9891   0.2831   1.0000   1
1544.704   0.9838   0.2850   1.0000   1
1544.741   1.0485   0.2915   1.0000   1
1544.777   0.9249   0.2793   1.0000   1
1544.814   1.1337   0.2997   1.0000   1
1544.851   1.0773   0.2935   1.0000   1
1544.888   0.8593   0.2695   1.0000   1
1544.924   0.9228   0.2750   1.0000   1
1544.961   0.8659   0.2695   1.0000   1
1544.998   1.2085   0.3028   1.0000   1
1545.034   1.1445   0.2966   1.0000   1
1545.071   0.8889   0.2731   1.0000   1
1545.108   0.9173   0.2742   1.0000   1
1545.145   0.9479   0.2777   1.0000   1
1545.181   0.9868   0.2806   1.0000   1
1545.218   1.1028   0.2882   1.0000   1
1545.255   0.9546   0.2739   1.0000   1
1545.291   1.0933   0.2860   1.0000   1
1545.328   1.0810   0.2862   1.0000   1
1545.365   1.2451   0.3002   1.0000   1
1545.402   1.0439   0.2831   1.0000   1
1545.438   1.0816   0.2860   1.0000   1
1545.475   1.0819   0.2848   1.0000   1
1545.512   1.2707   0.3014   1.0000   1
1545.548   1.1583   0.2925   1.0000   1
1545.585   1.1713   0.2939   1.0000   1
1545.622   0.9316   0.2726   1.0000   1
1545.658   1.0074   0.2784   1.0000   1
1545.695   0.9571   0.2747   1.0000   1
1545.732   1.1217   0.2894   1.0000   1
1545.769   1.0582   0.2846   1.0000   1
1545.805   1.1223   0.2904   1.0000   1
1545.842   0.9079   0.2707   1.0000   1
1545.879   1.0597   0.2849   1.0000   1
1545.916   1.0219   0.2806   1.0000   1
1545.952   0.9586   0.2736   1.0000   1
1545.989   0.9973   0.2792   1.0000   1
1546.026   0.8201   0.2600   1.0000   1
1546.062   1.0097   0.2802   1.0000   1
1546.099   0.9466   0.2736   1.0000   1
1546.136   1.2120   0.2978   1.0000   1
1546.172   1.1112   0.2882   1.0000   1
1546.209   1.0989   0.2884   1.0000   1
1546.246   0.9225   0.2712   1.0000   1
1546.283   1.0886   0.2872   1.0000   1
1546.319   1.1646   0.2939   1.0000   1
1546.356   0.9242   0.2723   1.0000   1
1546.393   0.8606   0.2656   1.0000   1
1546.429   0.7591   0.2560   1.0000   1
1546.466   1.0890   0.2878   1.0000   1
1546.503   0.9753   0.2774   1.0000   1
1546.540   1.0638   0.2855   1.0000   1
1546.576   1.1148   0.2898   1.0000   1
1546.613   0.9356   0.2737   1.0000   1
1546.650   0.9106   0.2713   1.0000   1
1546.686   1.0630   0.2843   1.0000   1
1546.723   0.9367   0.2744   1.0000   1
1546.760   1.1527   0.2924   1.0000   1
1546.797   0.9758   0.2769   1.0000   1
1546.833   0.9762   0.2777   1.0000   1
1546.870   0.9004   0.2703   1.0000   1
1546.907   1.0405   0.2833   1.0000   1
1546.943   0.8871   0.2642   1.0000   1
1546.980   1.1668   0.2948   1.0000   1
1547.017   0.9258   0.2732   1.0000   1
1547.054   1.1417   0.2931   1.0000   1
1547.090   0.8623   0.2669   1.0000   1
1547.127   0.8624   0.2664   1.0000   1
1547.164   0.8745   0.2685   1.0000   1
1547.200   0.9764   0.2781   1.0000   1
1547.237   1.0277   0.2812   1.0000   1
1547.274   1.0804   0.2873   1.0000   1
1547.311   0.7868   0.2591   0.9999   1
1547.347   0.7360   0.2544   0.9998   1
1547.384   1.0927   0.2891   0.9995   1
1547.421   1.1184   0.2911   0.9987   1
1547.457   0.7616   0.2549   0.9969   1
1547.494   1.2204   0.2990   0.9929   1
1547.531   0.7492   0.2551   0.9849   1
1547.568   0.9149   0.2723   0.9698   1
1547.604   0.7622   0.2572   0.9423   1
1547.641   0.8129   0.2601   0.8973   1
1547.678   0.8258   0.2643   0.8295   1
1547.714   0.6858   0.2491   0.7352   1
1547.751   0.7626   0.2554   0.6194   1
1547.788   0.4183   0.2159   0.4916   1
1547.825   0.3289   0.2027   0.3673   1
1547.861   0.2397   0.1890   0.2597   1
1547.898   0.2014   0.1806   0.1770   1
1547.935   0.0995   0.1624   0.1207   1
1547.971   0.0867   0.1613   0.0856   1
1548.008   0.1247   0.1685   0.0666   1
1548.045   0.1115   0.1665   0.0598   1
1548.082   0.0220   0.1472   0.0629   1
1548.118   0.0858   0.1614   0.0768   1
1548.155   0.1244   0.1691   0.1044   1
1548.192   0.1884   0.1780   0.1492   1
1548.228   0.2779   0.1961   0.2146   1
1548.265   0.3040   0.1995   0.2991   1
1548.302   0.3806   0.2112   0.3948   1
1548.338   0.3696   0.2105   0.4893   1
1548.375   0.5385   0.2335   0.5690   1
1548.412   0.6800   0.2514   0.6259   1
1548.449   0.7219   0.2572   0.6574   1
1548.485   0.6620   0.2512   0.6678   1
1548.522   0.6642   0.2513   0.6597   1
1548.559   0.6604   0.2506   0.6139   1
1548.595   0.4942   0.2297   0.5365   1
1548.632   0.4789   0.2275   0.5344   1
1548.669   0.7488   0.2611   0.5900   1
1548.706   0.5128   0.2318   0.6105   1
1548.742   0.6361   0.2481   0.6142   1
1548.779   0.6367   0.2478   0.6207   1
1548.816   0.5823   0.2428   0.6325   1
1548.852   0.6010   0.2429   0.6493   1
1548.889   0.5787   0.2384   0.6707   1
1548.926   0.6526   0.2465   0.6959   1
1548.963   0.7940   0.2618   0.7240   1
1548.999   0.7685   0.2583   0.7540   1
1549.036   0.8322   0.2651   0.7848   1
1549.073   0.7933   0.2606   0.8154   1
1549.109   0.7552   0.2568   0.8448   1
1549.146   1.0000   0.2823   0.8721   1
1549.183   0.9482   0.2762   0.8968   1
1549.220   0.9879   0.2804   0.9184   1
1549.256   0.8592   0.2680   0.9368   1
1549.293   0.9111   0.2733   0.9521   1
1549.330   0.9251   0.2753   0.9644   1
1549.366   0.9898   0.2812   0.9740   1
1549.403   0.9510   0.2774   0.9815   1
1549.440   1.0152   0.2839   0.9870   1
1549.477   1.2219   0.3016   0.9911   1
1549.513   1.1313   0.2945   0.9940   1
1549.550   1.1054   0.2923   0.9960   1
1549.587   1.1956   0.2986   0.9974   1
1549.623   0.8992   0.2721   0.9984   1
1549.660   1.0154   0.2836   0.9990   1
1549.697   1.0284   0.2845   0.9994   1
1549.734   0.9385   0.2766   0.9996   1
1549.770   1.0292   0.2847   0.9998   1
1549.807   1.0171   0.2827   0.9999   1
1549.844   0.9136   0.2740   0.9999   1
1549.880   1.0944   0.2915   0.9999   1
1549.917   1.0046   0.2797   0.9999   1
1549.954   1.0434   0.2861   0.9998   1
1549.991   1.1860   0.2955   0.9995   1
1550.027   1.2111   0.3017   0.9989   1
1550.064   0.7728   0.2597   0.9974   1
1550.101   1.1089   0.2922   0.9943   1
1550.137   1.1614   0.2971   0.9882   1
1550.174   0.8632   0.2697   0.9770   1
1550.211   1.1354   0.2952   0.9573   1
1550.248   0.8639   0.2692   0.9259   1
1550.284   0.9289   0.2737   0.8786   1
1550.321   0.9678   0.2787   0.8134   1
1550.358   0.8254   0.2632   0.7316   1
1550.394   0.6055   0.2418   0.6375   1
1550.431   0.6054   0.2425   0.5395   1
1550.468   0.5277   0.2318   0.4471   1
1550.505   0.3461   0.2060   0.3684   1
1550.541   0.2551   0.1924   0.3082   1
1550.578   0.3072   0.2022   0.2677   1
1550.615   0.1904   0.1826   0.2472   1
1550.651   0.2036   0.1823   0.2458   1
1550.688   0.3728   0.2117   0.2626   1
1550.725   0.2041   0.1858   0.2988   1
1550.761   0.3080   0.2021   0.3533   1
1550.798   0.3450   0.2096   0.4238   1
1550.835   0.5658   0.2397   0.5056   1
1550.872   0.7597   0.2627   0.5900   1
1550.908   0.7790   0.2665   0.6682   1
1550.945   0.7703   0.2658   0.7317   1
1550.982   0.7372   0.2616   0.7769   1
1551.019   0.7748   0.2651   0.8043   1
1551.055   0.6903   0.2548   0.8159   1
1551.092   0.7189   0.2584   0.8169   1
1551.129   0.7815   0.2673   0.8115   1
1551.165   0.9241   0.2816   0.8032   1
1551.202   0.7441   0.2629   0.7948   1
1551.239   0.8668   0.2763   0.7881   1
1551.275   0.8335   0.2722   0.7841   1
1551.312   0.9381   0.2812   0.7832   1
1551.349   0.7725   0.2611   0.7857   1
1551.386   0.8187   0.2648   0.7917   1
1551.422   0.7796   0.2618   0.8009   1
1551.459   0.7276   0.2559   0.8128   1
1551.496   1.0540   0.2893   0.8272   1
1551.532   0.8586   0.2694   0.8432   1
1551.569   0.7412   0.2576   0.8604   1
1551.606   0.9373   0.2772   0.8779   1
1551.643   0.9635   0.2800   0.8953   1
1551.679   0.9631   0.2806   0.9119   1
1551.716   1.0160   0.2856   0.9273   1
1551.753   1.0166   0.2854   0.9412   1
1551.789   0.9250   0.2764   0.9533   1
1551.826   0.7820   0.2620   0.9637   1
1551.863   0.8474   0.2685   0.9723   1
1551.900   0.9003   0.2753   0.9793   1
1551.936   0.8349   0.2682   0.9848   1
1551.973   0.9528   0.2789   0.9891   1
1552.010   0.8753   0.2728   0.9923   1
1552.046   1.0985   0.2934   0.9947   1
1552.083   1.0863   0.2919   0.9964   1
1552.120   1.0070   0.2853   0.9976   1
1552.157   1.2566   0.3074   0.9984   1
1552.193   1.0337   0.2884   0.9990   1
1552.230   0.8630   0.2711   0.9994   1
1552.267   1.0075   0.2841   0.9996   1
1552.303   1.1519   0.2981   0.9998   1
1552.340   1.2439   0.3069   0.9999   1
1552.377   1.0607   0.2897   0.9999   1
1552.414   0.9955   0.2851   1.0000   1
1552.450   0.9825   0.2824   1.0000   1
1552.487   0.9565   0.2802   1.0000   1
1552.524   1.0753   0.2927   1.0000   1
1552.560   0.9043   0.2761   1.0000   1
1552.597   0.8778   0.2737   1.0000   1
1552.634   1.0891   0.2935   1.0000   1
1552.671   0.9312   0.2784   1.0000   1
1552.707   0.9707   0.2824   1.0000   1
1552.744   0.8922   0.2750   1.0000   1
1552.781   0.8396   0.2698   1.0000   1
1552.817   1.0904   0.2941   1.0000   1
1552.854   1.0496   0.2890   1.0000   1
1552.891   0.7998   0.2650   1.0000   1
1552.928   0.9316   0.2788   1.0000   1
1552.964   0.9200   0.2772   1.0000   1
1553.001   0.8417   0.2690   1.0000   1
1553.038   1.0928   0.2944   1.0000   1
1553.074   0.8026   0.2658   1.0000   1
1553.111   0.7896   0.2636   1.0000   1
1553.148   1.2127   0.3046   1.0000   1
1553.185   0.8687   0.2730   1.0000   1
1553.221   1.1053   0.2947   1.0000   1
1553.258   1.0531   0.2904   1.0000   1
1553.295   1.0400   0.2895   1.0000   1
1553.331   0.8423   0.2701   1.0000   1
1553.368   1.0673   0.2928   1.0000   1
1553.405   0.9490   0.2804   1.0000   1
1553.441   0.8570   0.2722   1.0000   1
1553.478   1.1875   0.3031   1.0000   1
1553.515   0.9634   0.2818   1.0000   1
1553.552   1.1089   0.2953   1.0000   1
1553.588   1.0029   0.2861   1.0000   1
1553.625   1.0703   0.2932   1.0000   1
1553.662   1.0310   0.2895   1.0000   1
1553.698   1.0048   0.2870   1.0000   1
1553.735   0.9117   0.2775   1.0000   1
1553.772   1.1505   0.3002   1.0000   1
1553.809   1.0317   0.2884   1.0000   1
1553.845   1.0715   0.2919   1.0000   1
1553.882   0.8597   0.2708   1.0000   1
1553.919   0.8065   0.2660   1.0000   1
1553.955   1.1520   0.2999   1.0000   1
1553.992   1.1525   0.3006   1.0000   1
1554.029   1.0201   0.2888   1.0000   1
1554.066   0.9944   0.2860   1.0000   1
1554.102   0.8875   0.2762   1.0000   1
1554.139   0.8085   0.2658   1.0000   1
1554.176   1.1007   0.2963   1.0000   1
1554.212   0.9013   0.2777   1.0000   1
1554.249   0.9945   0.2869   1.0000   1
1554.286   1.0083   0.2870   1.0000   1
1554.323   0.9689   0.2839   1.0000   1
1554.359   1.0753   0.2934   1.0000   1
1554.396   0.9691   0.2835   1.0000   1
1554.433   0.8234   0.2680   1.0000   1
1554.469   0.9834   0.2847   1.0000   1
1554.506   0.9842   0.2857   1.0000   1
1554.543   0.9181   0.2791   1.0000   1
1554.580   0.9982   0.2869   1.0000   1
1554.616   0.8786   0.2750   1.0000   1
1554.653   0.9568   0.2865   1.0000   1
1554.690   0.9995   0.2918   1.0000   1
1554.726   1.2465   0.3153   1.0000   1
1554.763   1.0281   0.2957   1.0000   1
1554.800   1.2221   0.3155   1.0000   1
1554.837   1.2826   0.3195   1.0000   1
1554.873   1.0393   0.2970   1.0000   1
1554.910   1.0219   0.2947   1.0000   1
1554.947   0.9067   0.2825   1.0000   1
1554.983   0.9438   0.2908   1.0000   1
1555.020   0.9848   0.2964   1.0000   1
1555.057   1.1742   0.3156   1.0000   1
1555.094   0.9389   0.2916   1.0000   1
1555.130   1.0039   0.2984   1.0000   1
1555.167   1.1939   0.3148   1.0000   1
1555.204   0.9485   0.2881   1.0000   1
1555.240   1.0110   0.2946   1.0000   1
1555.277   0.9395   0.2868   1.0000   1
1555.314   1.2537   0.3138   1.0000   1
1555.351   1.1658   0.3093   1.0000   1
1555.387   1.4006   0.3300   1.0000   1
1555.424   1.0171   0.2954   1.0000   1
1555.461   1.0942   0.3026   1.0000   1
1555.497   1.2880   0.3179   1.0000   1
1555.534   0.9572   0.2853   1.0000   1
1555.571   0.9664   0.2851   1.0000   1
1555.608   0.8587   0.2742   1.0000   1
1555.644   0.9946   0.2879   1.0000   1
1555.681   0.9680   0.2858   1.0000   1
1555.718   1.1300   0.3012   1.0000   1
1555.754   0.8880   0.2782   1.0000   1
1555.791   0.8747   0.2768   1.0000   1
1555.828   0.9558   0.2840   1.0000   1
1555.864   1.0907   0.2976   1.0000   1
1555.901   0.9963   0.2882   1.0000   1
1555.938   0.8623   0.2759   1.0000   1
