# Best-fit normalized data and profile from VoigtFit
# column 1 : Wavelength
# column 2 : Normalized flux
# column 3 : Normalized error
# column 4 : Best-fit profile
# column 5 : Pixel mask, 1=included, 0=excluded
1389.133   1.2433   0.2506   1.0000   1
1389.162   0.8102   0.2097   1.0000   1
1389.193   0.9444   0.2223   1.0000   1
1389.222   1.1307   0.2408   1.0000   1
1389.252   0.9319   0.2227   1.0000   1
1389.282   0.9593   0.2252   1.0000   1
1389.312   1.0333   0.2321   1.0000   1
1389.342   1.0726   0.2357   1.0000   1
1389.372   1.0292   0.2313   1.0000   1
1389.402   0.8692   0.2163   1.0000   1
1389.432   1.0658   0.2349   1.0000   1
1389.462   1.0726   0.2360   1.0000   1
1389.492   0.9974   0.2288   1.0000   1
1389.522   0.6904   0.1971   1.0000   1
1389.552   0.9589   0.2252   1.0000   1
1389.582   1.0274   0.2319   1.0000   1
1389.612   1.0721   0.2360   1.0000   1
1389.642   1.0010   0.2292   1.0000   1
1389.672   1.1256   0.2408   1.0000   1
1389.702   0.8404   0.2131   1.0000   1
1389.732   1.0734   0.2362   1.0000   1
1389.762   0.9907   0.2286   1.0000   1
1389.792   1.0019   0.2279   1.0000   1
1389.822   1.0990   0.2376   1.0000   1
1389.852   1.0828   0.2369   1.0000   1
1389.882   0.8714   0.2170   1.0000   1
1389.912   1.0256   0.2309   1.0000   1
1389.942   0.9426   0.2241   1.0000   1
1389.972   1.0621   0.2354   1.0000   1
1390.002   1.1802   0.2459   1.0000   1
1390.032   1.0072   0.2303   1.0000   1
1390.062   1.0434   0.2335   1.0000   1
1390.092   1.0189   0.2307   1.0000   1
1390.122   1.1448   0.2428   1.0000   1
1390.152   1.0735   0.2364   1.0000   1
1390.182   1.0957   0.2366   1.0000   1
1390.212   1.0288   0.2301   1.0000   1
1390.242   1.0417   0.2300   1.0000   1
1390.272   0.9660   0.2202   1.0000   1
1390.302   1.1208   0.2324   1.0000   1
1390.332   1.2190   0.2431   1.0000   1
1390.362   0.7912   0.2048   1.0000   1
1390.392   0.9460   0.2216   1.0000   1
1390.422   1.3069   0.2497   1.0000   1
1390.451   1.1978   0.2426   1.0000   1
1390.482   1.1224   0.2356   1.0000   1
1390.511   1.0745   0.2299   1.0000   1
1390.542   1.0061   0.2268   1.0000   1
1390.571   1.0846   0.2332   1.0000   1
1390.601   0.7445   0.1998   1.0000   1
1390.631   0.9926   0.2259   1.0000   1
1390.661   0.9226   0.2203   1.0000   1
1390.691   0.9465   0.2236   1.0000   1
1390.721   0.8895   0.2193   1.0000   1
1390.751   0.8929   0.2195   1.0000   1
1390.781   1.2318   0.2501   1.0000   1
1390.811   0.9477   0.2249   1.0000   1
1390.841   0.9048   0.2209   1.0000   1
1390.871   0.9318   0.2234   1.0000   1
1390.901   1.0487   0.2343   1.0000   1
1390.931   0.9737   0.2274   1.0000   1
1390.961   1.1100   0.2399   1.0000   1
1390.991   0.9305   0.2233   1.0000   1
1391.021   1.1984   0.2472   1.0000   1
1391.051   0.8772   0.2177   0.9999   1
1391.081   1.0871   0.2383   0.9999   1
1391.111   1.1040   0.2399   0.9999   1
1391.141   0.9276   0.2234   0.9999   1
1391.171   1.0099   0.2305   0.9999   1
1391.201   1.2154   0.2495   0.9999   1
1391.231   0.9189   0.2222   0.9999   1
1391.261   1.0713   0.2363   0.9998   1
1391.291   0.8959   0.2200   0.9998   1
1391.321   1.0268   0.2326   0.9998   1
1391.351   1.0933   0.2389   0.9998   1
1391.381   0.9638   0.2259   0.9997   1
1391.411   0.9595   0.2264   0.9997   1
1391.441   1.0257   0.2324   0.9996   1
1391.471   1.0428   0.2329   0.9996   1
1391.501   0.9796   0.2284   0.9995   1
1391.531   1.0552   0.2352   0.9994   1
1391.561   0.8518   0.2154   0.9994   1
1391.591   0.9664   0.2270   0.9993   1
1391.621   1.0005   0.2304   0.9992   1
1391.651   0.9169   0.2221   0.9990   1
1391.681   1.3648   0.2620   0.9989   1
1391.711   0.9155   0.2221   0.9988   1
1391.741   0.9238   0.2230   0.9986   1
1391.770   1.0806   0.2364   0.9984   1
1391.801   0.9006   0.2207   0.9982   1
1391.830   0.9967   0.2302   0.9980   1
1391.861   0.9706   0.2267   0.9977   1
1391.890   0.9976   0.2289   0.9974   1
1391.920   0.9674   0.2266   0.9971   1
1391.950   1.0565   0.2352   0.9967   1
1391.980   0.8438   0.2149   0.9963   1
1392.010   1.0366   0.2340   0.9959   1
1392.040   1.0276   0.2329   0.9954   1
1392.070   0.9735   0.2282   0.9949   1
1392.100   0.8492   0.2157   0.9943   1
1392.130   1.1203   0.2418   0.9936   1
1392.160   0.9111   0.2208   0.9929   1
1392.190   1.0285   0.2293   0.9921   1
1392.220   1.0580   0.2335   0.9913   1
1392.250   1.1521   0.2356   0.9904   1
1392.280   1.0087   0.2261   0.9894   1
1392.310   1.0652   0.2294   0.9883   1
1392.340   1.1366   0.2384   0.9871   1
1392.370   1.1187   0.2355   0.9859   1
1392.400   0.8227   0.2084   0.9845   1
1392.430   1.0553   0.2297   0.9830   1
1392.460   0.8614   0.2099   0.9815   1
1392.490   1.0637   0.2310   0.9798   1
1392.520   0.8155   0.2071   0.9780   1
1392.550   0.9665   0.2240   0.9760   1
1392.580   0.8839   0.2166   0.9740   1
1392.610   0.9795   0.2256   0.9718   1
1392.640   0.7922   0.2076   0.9694   1
1392.670   0.7851   0.2093   0.9670   1
1392.700   0.8801   0.2192   0.9644   1
1392.730   1.0467   0.2355   0.9616   1
1392.760   1.0171   0.2323   0.9587   1
1392.790   0.7815   0.2091   0.9557   1
1392.820   0.7970   0.2105   0.9525   1
1392.850   0.9655   0.2277   0.9492   1
1392.880   0.9976   0.2307   0.9457   1
1392.910   0.7756   0.2080   0.9421   1
1392.940   0.9318   0.2234   0.9384   1
1392.970   0.8865   0.2201   0.9345   1
1393.000   1.0305   0.2340   0.9305   1
1393.030   0.9577   0.2271   0.9264   1
1393.060   0.9262   0.2241   0.9221   1
1393.090   0.9649   0.2277   0.9178   1
1393.120   1.1425   0.2438   0.9133   1
1393.149   0.7925   0.2094   0.9088   1
1393.180   0.8330   0.2142   0.9041   1
1393.209   0.9929   0.2306   0.8994   1
1393.239   0.9642   0.2278   0.8945   1
1393.270   1.1296   0.2431   0.8894   1
1393.300   0.9081   0.2226   0.8839   1
1393.330   0.8048   0.2113   0.8774   1
1393.359   1.0029   0.2318   0.8688   1
1393.389   0.8923   0.2207   0.8559   1
1393.419   0.7692   0.2055   0.8351   1
1393.449   0.6593   0.1961   0.8017   1
1393.479   0.8790   0.2193   0.7510   1
1393.509   0.9083   0.2224   0.6791   1
1393.539   0.4995   0.1756   0.5884   1
1393.569   0.4203   0.1655   0.4857   1
1393.599   0.4331   0.1660   0.3827   1
1393.629   0.3703   0.1575   0.2927   1
1393.659   0.4348   0.1675   0.2232   1
1393.689   0.1445   0.1132   0.1770   1
1393.719   0.0803   0.0995   0.1543   1
1393.749   0.1940   0.1268   0.1526   1
1393.779   0.1557   0.1183   0.1721   1
1393.809   0.2426   0.1315   0.2131   1
1393.839   0.2835   0.1431   0.2750   1
1393.869   0.3760   0.1590   0.3548   1
1393.899   0.4274   0.1663   0.4433   1
1393.929   0.6089   0.1904   0.5280   1
1393.959   0.5933   0.1881   0.5964   1
1393.989   0.5672   0.1841   0.6335   1
1394.019   0.6262   0.1925   0.6208   1
1394.049   0.6142   0.1907   0.5659   1
1394.079   0.3946   0.1616   0.5284   1
1394.109   0.5289   0.1804   0.5508   1
1394.139   0.6084   0.1904   0.5950   1
1394.169   0.7222   0.2035   0.6113   1
1394.199   0.5574   0.1841   0.6013   1
1394.229   0.6592   0.1963   0.5824   1
1394.259   0.5957   0.1882   0.5634   1
1394.289   0.4538   0.1699   0.5466   1
1394.319   0.7631   0.2070   0.5326   1
1394.349   0.4038   0.1633   0.5219   1
1394.379   0.5398   0.1813   0.5151   1
1394.409   0.5490   0.1815   0.5123   1
1394.439   0.6119   0.1907   0.5137   1
1394.469   0.6022   0.1897   0.5193   1
1394.499   0.5891   0.1877   0.5290   1
1394.529   0.5441   0.1826   0.5427   1
1394.559   0.6387   0.1934   0.5600   1
1394.589   0.5583   0.1844   0.5804   1
1394.619   0.6181   0.1916   0.6035   1
1394.649   0.5657   0.1854   0.6285   1
1394.679   0.6358   0.1933   0.6547   1
1394.709   0.4854   0.1750   0.6813   1
1394.738   0.8725   0.2198   0.7076   1
1394.769   0.8917   0.2219   0.7332   1
1394.799   0.6159   0.1907   0.7572   1
1394.828   0.6866   0.1999   0.7793   1
1394.859   0.8441   0.2170   0.7994   1
1394.888   0.7549   0.2077   0.8173   1
1394.918   1.0498   0.2372   0.8331   1
1394.948   0.8847   0.2214   0.8469   1
1394.978   0.8777   0.2191   0.8588   1
1395.008   0.7696   0.2085   0.8691   1
1395.038   0.8332   0.2155   0.8781   1
1395.068   0.9168   0.2244   0.8861   1
1395.098   0.8570   0.2185   0.8931   1
1395.128   1.0586   0.2372   0.8995   1
1395.158   1.0658   0.2372   0.9052   1
1395.188   0.8797   0.2207   0.9106   1
1395.218   0.7580   0.2057   0.9156   1
1395.248   0.7265   0.2024   0.9203   1
1395.278   0.8701   0.2172   0.9248   1
1395.308   0.9630   0.2234   0.9291   1
1395.338   1.0015   0.2265   0.9332   1
1395.368   1.0765   0.2320   0.9372   1
1395.398   0.9569   0.2242   0.9410   1
1395.428   1.0639   0.2331   0.9447   1
1395.458   0.8414   0.2106   0.9482   1
1395.488   0.8707   0.2155   0.9516   1
1395.518   0.9499   0.2203   0.9548   1
1395.548   1.0743   0.2342   0.9579   1
1395.578   1.0441   0.2313   0.9608   1
1395.608   1.1454   0.2366   0.9636   1
1395.638   1.0382   0.2261   0.9662   1
1395.668   1.0381   0.2270   0.9688   1
1395.698   0.9708   0.2225   0.9711   1
1395.728   1.0328   0.2238   0.9733   1
1395.758   1.2143   0.2439   0.9754   1
1395.788   1.0585   0.2314   0.9774   1
1395.818   1.0204   0.2294   0.9793   1
1395.848   1.1456   0.2391   0.9810   1
1395.878   1.1117   0.2369   0.9826   1
1395.908   1.2733   0.2481   0.9841   1
1395.938   1.0566   0.2318   0.9855   1
1395.968   0.8605   0.2153   0.9868   1
1395.998   0.9277   0.2202   0.9880   1
1396.028   0.7993   0.2103   0.9891   1
1396.058   0.8753   0.2177   0.9901   1
1396.088   0.8706   0.2193   0.9911   1
1396.118   0.8211   0.2150   0.9919   1
1396.148   1.0167   0.2343   0.9927   1
1396.178   1.1017   0.2422   0.9934   1
1396.208   1.0145   0.2344   0.9941   1
1396.238   0.9712   0.2305   0.9947   1
1396.268   1.0542   0.2384   0.9952   1
1396.298   1.1134   0.2437   0.9957   1
1396.328   1.0260   0.2359   0.9962   1
1396.358   1.0562   0.2383   0.9966   1
1396.388   0.9696   0.2297   0.9970   1
1396.417   0.9457   0.2280   0.9973   1
1396.448   0.9246   0.2251   0.9976   1
1396.477   0.9249   0.2253   0.9979   1
1396.507   1.1056   0.2430   0.9981   1
1396.537   0.9493   0.2277   0.9983   1
1396.567   0.9762   0.2299   0.9985   1
1396.597   1.1995   0.2516   0.9987   1
1396.627   1.1339   0.2452   0.9989   1
1396.657   0.8650   0.2195   0.9990   1
1396.688   1.1460   0.2468   0.9991   1
1396.717   0.9402   0.2276   0.9992   1
1396.747   1.1034   0.2430   0.9993   1
1396.778   0.8970   0.2229   0.9994   1
1396.807   0.9005   0.2235   0.9995   1
1396.837   0.9833   0.2318   0.9996   1
1396.867   0.9503   0.2282   0.9996   1
1396.897   0.9381   0.2275   0.9997   1
1396.927   0.9163   0.2255   0.9997   1
1396.957   0.9997   0.2330   0.9998   1
1396.987   0.8039   0.2141   0.9998   1
1397.017   0.9781   0.2314   0.9998   1
1397.047   0.9701   0.2310   0.9998   1
1397.077   0.9520   0.2284   0.9999   1
1397.107   0.8456   0.2180   0.9999   1
1397.137   1.0597   0.2392   0.9999   1
1397.167   1.0661   0.2400   0.9999   1
1397.197   1.0139   0.2353   0.9999   1
1397.227   1.0678   0.2402   0.9999   1
1397.257   1.0125   0.2349   0.9999   1
1397.287   1.0621   0.2384   1.0000   1
1397.317   1.0705   0.2401   1.0000   1
1397.347   0.9829   0.2318   1.0000   1
1397.377   0.9323   0.2272   1.0000   1
1397.407   1.0579   0.2390   1.0000   1
1397.437   1.0526   0.2382   1.0000   1
1397.467   0.9434   0.2282   1.0000   1
1397.497   0.8538   0.2181   1.0000   1
1397.527   0.9350   0.2275   1.0000   1
1397.557   1.0925   0.2418   1.0000   1
1397.587   1.0788   0.2412   1.0000   1
1397.617   1.0137   0.2352   1.0000   1
1397.647   1.0864   0.2417   1.0000   1
1397.677   0.8621   0.2201   1.0000   1
1397.707   1.1046   0.2433   1.0000   1
1397.737   1.0304   0.2368   1.0000   1
1397.767   1.1632   0.2488   1.0000   1
1397.797   1.1015   0.2433   1.0000   1
1397.827   1.1292   0.2454   1.0000   1
1397.857   1.0510   0.2387   1.0000   1
1397.887   1.0335   0.2359   1.0000   1
1397.917   0.9001   0.2240   1.0000   1
1397.947   0.8921   0.2219   1.0000   1
1397.977   0.9015   0.2241   1.0000   1
1398.007   1.1826   0.2499   1.0000   1
1398.037   1.0577   0.2391   1.0000   1
1398.067   0.8247   0.2164   1.0000   1
1398.097   1.0595   0.2393   1.0000   1
1398.127   0.8784   0.2219   1.0000   1
1398.157   0.9539   0.2284   1.0000   1
1398.187   1.0396   0.2382   1.0000   1
1398.217   0.8926   0.2236   1.0000   1
1398.247   0.9259   0.2272   1.0000   1
1398.277   0.9126   0.2244   1.0000   1
1398.307   0.9650   0.2309   1.0000   1
1398.337   1.0073   0.2350   1.0000   1
1398.367   1.0676   0.2409   1.0000   1
1398.397   0.9227   0.2269   1.0000   1
1398.426   1.0316   0.2371   1.0000   1
1398.457   1.2259   0.2552   1.0000   1
1398.487   1.1874   0.2514   1.0000   1
1398.516   0.8560   0.2196   1.0000   1
1398.546   0.9599   0.2262   1.0000   1
1398.576   1.0574   0.2335   1.0000   1
1398.606   1.0529   0.2326   1.0000   1
1398.636   1.0589   0.2340   1.0000   1
1398.666   1.0117   0.2311   1.0000   1
1398.696   0.9996   0.2270   1.0000   1
1398.726   0.9707   0.2263   1.0000   1
1398.756   0.9663   0.2257   1.0000   1
1398.786   1.1432   0.2400   1.0000   1
1398.816   1.0786   0.2360   1.0000   1
1398.846   0.8596   0.2168   1.0000   1
1398.876   1.0991   0.2352   1.0000   1
1398.906   1.0354   0.2287   1.0000   1
1398.936   1.0955   0.2383   1.0000   1
1398.966   1.0348   0.2334   1.0000   1
1398.996   1.0822   0.2386   1.0000   1
1399.026   1.1079   0.2436   1.0000   1
1399.056   1.1017   0.2437   1.0000   1
1399.086   0.9394   0.2290   1.0000   1
1399.116   1.0402   0.2381   1.0000   1
1399.146   0.7645   0.2091   1.0000   1
1399.176   1.1210   0.2460   1.0000   1
1399.206   1.0255   0.2372   1.0000   1
1399.236   1.0649   0.2405   1.0000   1
1399.266   0.9205   0.2265   1.0000   1
1399.296   1.0977   0.2434   1.0000   1
1399.326   1.0192   0.2367   1.0000   1
1399.356   1.1115   0.2454   1.0000   1
1399.386   1.1807   0.2519   1.0000   1
1399.416   0.8581   0.2207   1.0000   1
1399.446   1.0597   0.2399   1.0000   1
1399.476   0.8620   0.2209   1.0000   1
1399.506   0.9212   0.2263   1.0000   1
1399.536   0.9469   0.2293   1.0000   1
1399.566   0.8028   0.2145   1.0000   1
1399.596   0.9149   0.2268   1.0000   1
1399.626   0.8987   0.2248   1.0000   1
1399.656   0.7594   0.2105   1.0000   1
1399.686   0.9450   0.2290   1.0000   1
1399.716   0.9735   0.2320   1.0000   1
1399.746   0.8110   0.2161   1.0000   1
1399.776   1.1671   0.2506   1.0000   1
1399.806   0.8028   0.2146   1.0000   1
1399.836   1.0696   0.2418   1.0000   1
1399.866   1.0453   0.2395   1.0000   1
1399.896   0.8806   0.2233   1.0000   1
1399.926   0.9559   0.2308   1.0000   1
1399.956   0.9954   0.2348   1.0000   1
1399.986   1.0107   0.2362   1.0000   1
1400.016   1.0714   0.2420   1.0000   1
1400.046   1.0119   0.2364   1.0000   1
1400.076   0.9598   0.2286   1.0000   1
1400.106   1.1786   0.2519   1.0000   1
1400.136   0.8585   0.2213   1.0000   1
1400.166   0.9426   0.2298   1.0000   1
1400.196   0.9874   0.2340   0.9999   1
1400.226   1.1440   0.2488   0.9999   1
1400.256   1.1118   0.2459   0.9999   1
1400.286   1.1326   0.2478   0.9999   1
1400.316   0.9895   0.2334   0.9999   1
1400.346   0.9499   0.2306   0.9999   1
1400.376   0.9302   0.2286   0.9999   1
1400.406   0.9366   0.2293   0.9998   1
1400.436   1.1943   0.2526   0.9998   1
1400.466   0.9421   0.2290   0.9998   1
1400.496   0.9755   0.2325   0.9998   1
1400.526   0.9577   0.2267   0.9997   1
1400.556   1.0478   0.2344   0.9997   1
1400.586   1.1451   0.2404   0.9996   1
1400.616   1.0072   0.2304   0.9996   1
1400.646   1.0283   0.2328   0.9995   1
1400.676   0.9230   0.2199   0.9995   1
1400.706   1.0110   0.2335   0.9994   1
1400.736   0.9690   0.2293   0.9993   1
1400.765   1.0337   0.2360   0.9992   1
1400.796   1.0276   0.2339   0.9991   1
1400.826   0.9789   0.2278   0.9990   1
1400.855   0.9832   0.2288   0.9989   1
1400.886   1.0053   0.2304   0.9988   1
1400.916   1.1372   0.2434   0.9986   1
1400.945   0.8359   0.2146   0.9984   1
1400.975   1.1480   0.2460   0.9982   1
1401.005   1.0223   0.2362   0.9980   1
1401.035   0.8634   0.2224   0.9978   1
1401.065   0.9629   0.2323   0.9975   1
1401.095   1.1636   0.2507   0.9973   1
1401.125   1.2738   0.2608   0.9970   1
1401.155   1.0726   0.2427   0.9966   1
1401.185   1.2354   0.2569   0.9963   1
1401.215   1.0621   0.2414   0.9959   1
1401.245   0.9717   0.2327   0.9954   1
1401.275   1.0506   0.2400   0.9949   1
1401.305   1.0235   0.2382   0.9944   1
1401.335   1.1340   0.2483   0.9939   1
1401.365   0.9940   0.2357   0.9933   1
1401.395   1.0233   0.2385   0.9926   1
1401.425   0.8623   0.2225   0.9919   1
1401.455   0.9143   0.2276   0.9911   1
1401.485   1.0187   0.2382   0.9903   1
1401.515   1.0435   0.2404   0.9894   1
1401.545   1.2428   0.2585   0.9885   1
1401.575   1.1194   0.2475   0.9875   1
1401.605   1.1178   0.2476   0.9865   1
1401.635   1.0335   0.2395   0.9853   1
1401.665   0.8664   0.2232   0.9841   1
1401.695   0.8945   0.2260   0.9829   1
1401.725   1.1935   0.2541   0.9815   1
1401.755   0.9890   0.2347   0.9801   1
1401.785   1.1491   0.2499   0.9786   1
1401.815   0.8982   0.2266   0.9771   1
1401.845   0.8887   0.2238   0.9755   1
1401.875   1.0306   0.2395   0.9737   1
1401.905   0.9661   0.2329   0.9720   1
1401.935   1.0522   0.2417   0.9701   1
1401.965   0.9138   0.2277   0.9682   1
1401.995   0.8722   0.2231   0.9662   1
1402.025   0.8420   0.2208   0.9641   1
1402.055   1.0623   0.2419   0.9620   1
1402.085   0.8836   0.2246   0.9598   1
1402.115   1.1049   0.2465   0.9575   1
1402.145   0.9324   0.2299   0.9552   1
1402.175   0.8488   0.2200   0.9529   1
1402.205   0.9628   0.2329   0.9505   1
1402.235   0.9100   0.2278   0.9480   1
1402.265   1.1162   0.2474   0.9454   1
1402.295   0.9210   0.2284   0.9427   1
1402.325   0.8515   0.2218   0.9397   1
1402.355   0.9970   0.2364   0.9359   1
1402.385   0.9104   0.2274   0.9305   1
1402.415   0.8444   0.2212   0.9222   1
1402.445   1.1137   0.2474   0.9083   1
1402.475   0.8711   0.2226   0.8861   1
1402.505   0.7393   0.2093   0.8514   1
1402.535   0.8193   0.2180   0.8026   1
1402.565   0.7835   0.2136   0.7389   1
1402.595   0.6532   0.1998   0.6640   1
1402.625   0.6976   0.2048   0.5853   1
1402.655   0.3230   0.1541   0.5118   1
1402.685   0.3908   0.1650   0.4514   1
1402.715   0.3554   0.1597   0.4113   1
1402.745   0.4276   0.1689   0.3939   1
1402.775   0.5036   0.1805   0.4007   1
1402.805   0.5557   0.1879   0.4308   1
1402.835   0.4813   0.1773   0.4807   1
1402.865   0.4547   0.1721   0.5458   1
1402.895   0.5909   0.1924   0.6172   1
1402.925   0.6552   0.1994   0.6856   1
1402.955   0.7354   0.2091   0.7434   1
1402.985   0.7668   0.2127   0.7839   1
1403.015   0.6288   0.1972   0.7984   1
1403.045   0.9157   0.2286   0.7791   1
1403.075   0.9063   0.2276   0.7401   1
1403.105   0.7569   0.2113   0.7255   1
1403.135   0.8585   0.2227   0.7507   1
1403.165   0.8164   0.2186   0.7781   1
1403.195   0.8564   0.2226   0.7841   1
1403.225   0.6586   0.2001   0.7755   1
1403.255   0.7933   0.2159   0.7631   1
1403.285   0.7393   0.2096   0.7511   1
1403.315   0.5952   0.1930   0.7403   1
1403.345   0.6499   0.1998   0.7315   1
1403.374   0.6446   0.1990   0.7249   1
1403.405   0.7554   0.2113   0.7209   1
1403.435   0.5907   0.1928   0.7196   1
1403.465   0.7535   0.2116   0.7211   1
1403.495   0.5973   0.1930   0.7255   1
1403.525   0.6309   0.1977   0.7326   1
1403.555   0.8779   0.2226   0.7423   1
1403.585   0.9381   0.2284   0.7541   1
1403.615   0.8042   0.2126   0.7676   1
1403.645   0.7068   0.1997   0.7825   1
1403.675   0.6716   0.1998   0.7982   1
1403.705   0.8453   0.2169   0.8143   1
1403.735   0.9845   0.2302   0.8302   1
1403.764   0.9866   0.2294   0.8457   1
1403.795   1.0280   0.2354   0.8603   1
1403.825   0.7035   0.1974   0.8738   1
1403.854   1.0085   0.2291   0.8860   1
1403.885   0.8934   0.2186   0.8969   1
1403.915   0.8998   0.2178   0.9066   1
1403.944   0.7966   0.2078   0.9149   1
1403.975   0.9802   0.2244   0.9222   1
1404.005   0.8521   0.2135   0.9284   1
1404.034   0.7804   0.2086   0.9338   1
1404.064   0.8858   0.2207   0.9385   1
1404.094   0.9072   0.2240   0.9426   1
1404.124   1.0551   0.2382   0.9462   1
1404.154   1.1547   0.2473   0.9494   1
1404.184   0.9635   0.2280   0.9524   1
1404.214   1.2024   0.2472   0.9551   1
1404.244   0.8881   0.2204   0.9577   1
1404.274   0.9408   0.2241   0.9601   1
1404.304   0.7735   0.2109   0.9624   1
1404.334   0.9375   0.2277   0.9646   1
1404.364   0.9107   0.2281   0.9666   1
1404.394   1.0171   0.2375   0.9687   1
1404.424   1.0945   0.2454   0.9706   1
1404.454   0.8970   0.2275   0.9724   1
1404.484   0.8284   0.2202   0.9742   1
1404.514   1.2969   0.2632   0.9759   1
1404.544   1.1579   0.2526   0.9775   1
1404.574   1.0237   0.2400   0.9790   1
1404.604   0.8251   0.2201   0.9805   1
1404.634   0.7898   0.2162   0.9819   1
1404.664   0.9911   0.2367   0.9832   1
1404.694   0.9252   0.2299   0.9845   1
1404.724   0.9349   0.2310   0.9856   1
1404.754   0.8197   0.2193   0.9867   1
1404.784   0.8029   0.2179   0.9878   1
1404.814   1.0813   0.2453   0.9888   1
1404.844   0.8424   0.2220   0.9897   1
1404.874   1.1434   0.2516   0.9905   1
1404.904   1.0101   0.2391   0.9913   1
1404.934   1.2615   0.2621   0.9921   1
1404.964   0.9641   0.2345   0.9928   1
1404.994   1.0897   0.2465   0.9934   1
1405.024   0.9547   0.2335   0.9940   1
1405.054   0.9162   0.2296   0.9946   1
1405.084   0.9306   0.2309   0.9951   1
1405.114   0.7659   0.2135   0.9955   1
1405.144   1.0174   0.2397   0.9960   1
1405.174   1.2305   0.2592   0.9964   1
1405.204   0.9366   0.2319   0.9967   1
1405.234   0.9773   0.2356   0.9970   1
1405.264   1.0167   0.2398   0.9973   1
1405.294   0.7623   0.2136   0.9976   1
1405.324   0.8534   0.2233   0.9979   1
1405.354   1.0607   0.2434   0.9981   1
1405.384   1.0678   0.2441   0.9983   1
1405.414   0.9544   0.2333   0.9985   1
1405.444   1.0106   0.2392   0.9986   1
1405.474   0.8970   0.2273   0.9988   1
1405.504   0.9536   0.2337   0.9989   1
1405.534   0.9115   0.2295   0.9991   1
1405.564   1.4370   0.2769   0.9992   1
1405.594   0.8841   0.2267   0.9993   1
1405.624   1.0168   0.2397   0.9993   1
1405.654   1.0016   0.2382   0.9994   1
1405.684   1.0776   0.2457   0.9995   1
1405.714   0.9450   0.2327   0.9996   1
1405.744   0.9646   0.2337   0.9996   1
1405.774   1.1414   0.2518   0.9997   1
1405.804   1.0558   0.2435   0.9997   1
1405.834   0.7480   0.2124   0.9997   1
1405.864   1.0319   0.2417   0.9998   1
1405.894   0.9219   0.2309   0.9998   1
1405.924   0.9390   0.2324   0.9998   1
1405.954   0.9775   0.2359   0.9999   1
1405.984   0.9648   0.2349   0.9999   1
1406.014   1.0111   0.2397   0.9999   1
1406.044   0.9970   0.2374   0.9999   1
1406.074   1.0445   0.2428   0.9999   1
1406.104   1.0776   0.2459   0.9999   1
1406.134   0.9252   0.2305   0.9999   1
1406.164   0.8665   0.2246   0.9999   1
1406.194   1.0698   0.2450   1.0000   1
1406.224   0.9893   0.2373   1.0000   1
1406.254   1.1054   0.2486   1.0000   1
1406.284   1.0336   0.2418   1.0000   1
1406.314   1.0075   0.2390   1.0000   1
1406.344   0.9917   0.2379   1.0000   1
1406.374   1.0036   0.2390   1.0000   1
1406.404   0.9150   0.2301   1.0000   1
1406.434   0.9404   0.2327   1.0000   1
1406.464   1.0962   0.2478   1.0000   1
1406.494   0.9486   0.2334   1.0000   1
1406.524   0.9821   0.2358   1.0000   1
1406.554   0.9399   0.2328   1.0000   1
1406.584   0.7766   0.2154   1.0000   1
1406.614   0.7730   0.2152   1.0000   1
1406.644   0.9412   0.2330   1.0000   1
1406.674   1.0082   0.2390   1.0000   1
1406.704   0.9822   0.2364   1.0000   1
1406.734   1.0806   0.2463   1.0000   1
1406.764   1.0146   0.2386   1.0000   1
1406.794   1.1194   0.2468   1.0000   1
1406.824   1.0841   0.2433   1.0000   1
1406.854   1.1523   0.2482   1.0000   1
1406.884   1.1684   0.2505   1.0000   1
1406.914   1.1541   0.2475   1.0000   1
1406.944   1.2478   0.2554   1.0000   1
1406.974   1.1542   0.2472   1.0000   1
1407.004   1.1312   0.2467   1.0000   1
1407.034   1.0040   0.2342   1.0000   1
1407.064   1.0007   0.2357   1.0000   1
1407.094   1.0965   0.2414   1.0000   1
1407.124   1.0202   0.2353   1.0000   1
1407.154   1.2922   0.2582   1.0000   1
1407.184   1.1903   0.2457   1.0000   1
1407.214   1.1208   0.2406   1.0000   1
1407.244   0.9620   0.2282   1.0000   1
1407.274   1.0253   0.2364   1.0000   1
1407.304   0.9786   0.2337   1.0000   1
1407.334   1.0237   0.2393   1.0000   1
1407.364   1.1271   0.2496   1.0000   1
1407.394   1.0498   0.2441   1.0000   1
1407.424   1.0747   0.2461   1.0000   1
