# Best-fit normalized data and profile from VoigtFit
# column 1 : Wavelength
# column 2 : Normalized flux
# column 3 : Normalized error
# column 4 : Best-fit profile
# column 5 : Pixel mask, 1=included, 0=excluded
1202.492   1.0672   0.0966   1.0000   1
1202.521   0.9147   0.0901   1.0000   1
1202.551   0.9519   0.0918   1.0000   1
1202.581   0.9796   0.0930   1.0000   1
1202.611   0.9134   0.0901   1.0000   1
1202.641   1.0026   0.0941   1.0000   1
1202.671   1.0140   0.0947   1.0000   1
1202.701   0.9523   0.0921   1.0000   1
1202.731   0.9874   0.0936   1.0000   1
1202.761   0.9537   0.0922   1.0000   1
1202.790   1.0020   0.0944   1.0000   1
1202.820   0.9447   0.0919   1.0000   1
1202.850   0.9752   0.0934   1.0000   1
1202.880   0.9705   0.0931   1.0000   1
1202.910   0.9866   0.0939   1.0000   1
1202.940   0.9015   0.0902   1.0000   1
1202.970   0.9448   0.0921   1.0000   1
1203.000   1.0076   0.0949   1.0000   1
1203.029   0.9794   0.0938   1.0000   1
1203.059   0.9860   0.0942   1.0000   1
1203.089   1.0100   0.0953   1.0000   1
1203.119   0.9822   0.0939   1.0000   1
1203.149   1.0234   0.0960   1.0000   1
1203.179   1.0049   0.0951   1.0000   1
1203.209   0.9565   0.0930   1.0000   1
1203.239   0.9642   0.0934   1.0000   1
1203.268   1.1036   0.0995   1.0000   1
1203.298   1.0384   0.0968   1.0000   1
1203.328   1.0051   0.0954   1.0000   1
1203.358   0.9732   0.0941   1.0000   1
1203.388   0.9755   0.0944   1.0000   1
1203.418   1.0884   0.0992   1.0000   1
1203.448   1.0134   0.0961   1.0000   1
1203.478   1.0141   0.0962   1.0000   1
1203.507   0.9015   0.0913   1.0000   1
1203.537   1.0059   0.0960   1.0000   1
1203.567   1.0125   0.0963   1.0000   1
1203.597   0.9296   0.0927   1.0000   1
1203.627   0.9975   0.0957   1.0000   1
1203.657   0.9942   0.0957   1.0000   1
1203.687   0.9570   0.0942   1.0000   1
1203.717   0.9471   0.0937   1.0000   1
1203.746   0.9344   0.0932   1.0000   1
1203.776   1.0199   0.0971   1.0000   1
1203.806   1.0079   0.0966   1.0000   1
1203.836   1.0168   0.0971   1.0000   1
1203.866   1.0230   0.0974   1.0000   1
1203.896   0.9479   0.0942   1.0000   1
1203.926   1.0339   0.0980   1.0000   1
1203.956   1.0134   0.0972   1.0000   1
1203.986   0.9777   0.0956   1.0000   1
1204.015   1.1063   0.1012   1.0000   1
1204.045   1.0800   0.1002   1.0000   1
1204.075   1.0063   0.0970   1.0000   1
1204.105   0.9228   0.0933   1.0000   1
1204.135   1.0195   0.0978   1.0000   1
1204.165   1.0012   0.0970   1.0000   1
1204.195   0.9340   0.0940   1.0000   1
1204.225   1.0503   0.0992   1.0000   1
1204.254   0.9721   0.0959   1.0000   1
1204.284   1.0325   0.0986   1.0000   1
1204.314   1.0364   0.0988   1.0000   1
1204.344   1.0213   0.0981   1.0000   1
1204.374   0.9678   0.0959   1.0000   1
1204.404   1.1051   0.1020   1.0000   1
1204.434   1.0643   0.1003   1.0000   1
1204.464   1.0081   0.0978   1.0000   1
1204.493   1.0685   0.1005   1.0000   1
1204.523   0.9239   0.0941   1.0000   1
1204.553   0.9586   0.0958   1.0000   1
1204.583   0.9598   0.0959   1.0000   1
1204.613   0.9175   0.0940   1.0000   1
1204.643   0.9890   0.0973   1.0000   1
1204.673   0.9746   0.0968   1.0000   1
1204.703   1.0419   0.0997   1.0000   1
1204.732   0.9522   0.0958   1.0000   1
1204.762   1.0625   0.1008   1.0000   1
1204.792   0.9673   0.0967   1.0000   1
1204.822   0.9931   0.0978   1.0000   1
1204.852   1.1024   0.1027   1.0000   1
1204.882   1.0791   0.1019   1.0000   1
1204.912   1.0258   0.0997   1.0000   1
1204.942   1.0822   0.1021   1.0000   1
1204.971   1.0152   0.0993   0.9999   1
1205.001   0.9782   0.0976   0.9999   1
1205.031   0.9954   0.0985   0.9999   1
1205.061   1.0397   0.1006   0.9999   1
1205.091   0.9254   0.0954   0.9999   1
1205.121   1.0327   0.1002   0.9998   1
1205.151   0.9549   0.0969   0.9994   1
1205.181   1.0759   0.1024   0.9968   1
1205.211   1.0194   0.0999   0.9862   1
1205.240   0.9168   0.0954   0.9526   1
1205.270   0.8367   0.0915   0.8729   1
1205.300   0.8011   0.0898   0.7364   1
1205.330   0.6229   0.0799   0.5752   1
1205.360   0.3669   0.0638   0.4500   1
1205.390   0.4503   0.0695   0.4127   1
1205.420   0.5047   0.0731   0.4795   1
1205.450   0.6163   0.0803   0.6238   1
1205.479   0.8025   0.0911   0.7813   1
1205.509   0.8417   0.0938   0.8917   1
1205.539   0.8641   0.0959   0.9221   1
1205.569   0.8302   0.0935   0.8626   1
1205.599   0.7893   0.0907   0.7306   1
1205.629   0.5975   0.0802   0.6008   1
1205.659   0.5582   0.0778   0.5601   1
1205.689   0.5969   0.0806   0.6383   1
1205.718   0.8453   0.0941   0.7821   1
1205.748   0.9064   0.0975   0.9056   1
1205.778   0.9469   0.0992   0.9706   1
1205.808   0.9866   0.1012   0.9934   1
1205.838   1.0350   0.1032   0.9988   1
1205.868   0.9974   0.1014   0.9996   1
1205.898   0.9733   0.1002   0.9996   1
1205.928   0.9543   0.0994   0.9992   1
1205.957   1.0612   0.1039   0.9984   1
1205.987   0.9715   0.0996   0.9969   1
1206.017   1.0606   0.1036   0.9937   1
1206.047   0.9472   0.0985   0.9876   1
1206.077   0.9275   0.0977   0.9762   1
1206.107   0.9017   0.0966   0.9567   1
1206.137   0.9231   0.0976   0.9247   1
1206.167   0.8836   0.0958   0.8756   1
1206.197   0.8230   0.0927   0.8056   1
1206.226   0.8005   0.0918   0.7124   1
1206.256   0.5797   0.0793   0.6002   1
1206.286   0.4702   0.0724   0.4778   1
1206.316   0.3641   0.0652   0.3570   1
1206.346   0.2573   0.0564   0.2502   1
1206.376   0.1272   0.0412   0.1659   1
1206.406   0.1053   0.0398   0.1056   1
1206.436   0.0786   0.0352   0.0662   1
1206.465   0.0508   0.0302   0.0423   1
1206.495   0.0295   0.0255   0.0290   1
1206.525   0.0218   0.0243   0.0227   1
1206.555   0.0493   0.0290   0.0210   1
1206.585   0.0263   0.0245   0.0233   1
1206.615   0.0385   0.0279   0.0304   1
1206.645   0.0391   0.0265   0.0445   1
1206.675   0.0581   0.0325   0.0687   1
1206.704   0.0960   0.0381   0.1036   1
1206.734   0.1558   0.0471   0.1387   1
1206.764   0.1355   0.0447   0.1585   1
1206.794   0.1968   0.0524   0.1728   1
1206.824   0.2369   0.0556   0.2331   1
1206.854   0.3485   0.0656   0.3855   1
1206.884   0.6350   0.0847   0.5892   1
1206.914   0.7765   0.0921   0.7625   1
1206.943   0.8405   0.0953   0.8700   1
1206.973   0.9158   0.0993   0.9279   1
1207.003   1.0719   0.1064   0.9597   1
1207.033   0.9680   0.1019   0.9780   1
1207.063   0.9310   0.1000   0.9885   1
1207.093   0.9855   0.1029   0.9942   1
1207.123   0.9802   0.1028   0.9971   1
1207.153   1.1585   0.1109   0.9986   1
1207.182   0.9899   0.1034   0.9993   1
1207.212   1.0141   0.1046   0.9996   1
1207.242   1.1132   0.1089   0.9998   1
1207.272   1.0989   0.1085   0.9998   1
1207.302   1.0945   0.1084   0.9999   1
1207.332   1.0849   0.1081   0.9999   1
1207.362   1.0653   0.1071   0.9999   1
1207.392   0.9832   0.1035   0.9999   1
1207.422   1.1358   0.1105   0.9999   1
1207.451   1.1577   0.1117   0.9999   1
1207.481   1.0602   0.1074   0.9999   1
1207.511   1.1499   0.1116   0.9999   1
1207.541   1.0839   0.1084   0.9999   1
1207.571   0.9861   0.1042   0.9999   1
1207.601   1.0707   0.1083   0.9999   1
1207.631   0.9390   0.1019   1.0000   1
1207.661   1.0353   0.1067   1.0000   1
1207.690   1.0582   0.1078   1.0000   1
1207.720   0.9134   0.1009   1.0000   1
1207.750   0.9739   0.1040   1.0000   1
1207.780   1.0848   0.1093   1.0000   1
1207.810   0.9631   0.1038   1.0000   1
1207.840   1.0856   0.1096   1.0000   1
1207.870   0.9517   0.1031   1.0000   1
1207.900   1.0033   0.1057   1.0000   1
1207.929   0.9820   0.1049   1.0000   1
1207.959   1.0286   0.1072   1.0000   1
1207.989   0.9981   0.1065   1.0000   1
1208.019   1.0027   0.1074   1.0000   1
1208.049   1.0133   0.1083   1.0000   1
1208.079   1.0432   0.1100   1.0000   1
1208.109   1.1714   0.1155   1.0000   1
1208.139   1.0201   0.1082   1.0000   1
1208.168   1.1115   0.1131   1.0000   1
1208.198   1.0567   0.1104   1.0000   1
1208.228   1.0932   0.1127   1.0000   1
1208.258   0.9729   0.1071   1.0000   1
1208.288   0.9974   0.1082   1.0000   1
1208.318   1.0376   0.1104   1.0000   1
1208.348   0.9392   0.1058   1.0000   1
1208.378   0.9536   0.1062   1.0000   1
1208.408   1.0997   0.1130   1.0000   1
1208.437   0.9791   0.1070   1.0000   1
1208.467   1.0830   0.1112   1.0000   1
1208.497   0.9899   0.1069   1.0000   1
1208.527   0.9836   0.1063   1.0000   1
1208.557   1.0704   0.1108   1.0000   1
1208.587   1.0826   0.1116   1.0000   1
1208.617   0.9526   0.1050   1.0000   1
1208.647   0.9585   0.1058   1.0000   1
1208.676   1.0531   0.1106   1.0000   1
1208.706   1.0363   0.1096   1.0000   1
1208.736   1.0981   0.1126   1.0000   1
1208.766   1.0845   0.1122   1.0000   1
1208.796   1.0152   0.1090   1.0000   1
1208.826   0.9346   0.1050   1.0000   1
1208.856   0.9616   0.1067   1.0000   1
1208.886   0.9828   0.1076   1.0000   1
1208.915   1.0726   0.1122   1.0000   1
1208.945   1.0763   0.1124   1.0000   1
1208.975   1.0052   0.1089   1.0000   1
1209.005   1.0196   0.1099   1.0000   1
1209.035   1.1200   0.1148   1.0000   1
1209.065   1.0587   0.1126   1.0000   1
1209.095   1.0572   0.1133   1.0000   1
1209.125   1.0146   0.1117   1.0000   1
1209.154   1.0917   0.1157   1.0000   1
1209.184   1.1073   0.1165   1.0000   1
1209.214   1.0244   0.1129   1.0000   1
1209.244   1.0699   0.1149   1.0000   1
1209.274   0.9153   0.1077   1.0000   1
1209.304   1.0588   0.1143   1.0000   1
1209.334   1.0092   0.1116   1.0000   1
1209.364   1.0314   0.1123   1.0000   1
1209.394   1.0147   0.1123   1.0000   1
1209.423   0.9785   0.1107   1.0000   1
1209.453   1.0178   0.1130   1.0000   1
1209.483   1.0565   0.1150   1.0000   1
1209.513   1.0583   0.1148   1.0000   1
1209.543   0.9545   0.1090   1.0000   1
1209.573   0.9942   0.1107   1.0000   1
1209.603   1.0477   0.1131   1.0000   1
1209.633   0.9514   0.1082   1.0000   1
1209.662   0.9393   0.1077   1.0000   1
1209.692   0.9617   0.1087   1.0000   1
1209.722   1.0667   0.1142   1.0000   1
1209.752   1.1087   0.1163   1.0000   1
1209.782   0.9357   0.1080   1.0000   1
1209.812   0.9825   0.1105   1.0000   1
1209.842   1.0604   0.1144   1.0000   1
1209.872   0.9461   0.1087   1.0000   1
1209.901   1.0404   0.1137   1.0000   1
1209.931   0.9873   0.1110   1.0000   1
1209.961   0.8585   0.1044   1.0000   1
1209.991   0.9596   0.1098   1.0000   1
1210.021   0.7629   0.0993   1.0000   1
1210.051   0.9398   0.1091   1.0000   1
1210.081   0.8940   0.1066   1.0000   1
1210.111   0.9495   0.1098   1.0000   1
1210.140   0.9452   0.1096   1.0000   1
1210.170   0.9791   0.1114   1.0000   1
1210.200   0.9335   0.1092   1.0000   1
1210.230   0.8380   0.1040   1.0000   1
1210.260   0.8998   0.1076   1.0000   1
1210.290   0.9492   0.1103   1.0000   1
1210.320   0.9847   0.1123   1.0000   1
1210.350   0.9150   0.1085   1.0000   1
1210.380   0.9318   0.1097   1.0000   1
1210.409   0.8950   0.1075   1.0000   1
1210.439   0.8381   0.1047   1.0000   1
1210.469   0.8888   0.1077   1.0000   1
1210.499   0.8799   0.1073   1.0000   1
