# Best-fit normalized data and profile from VoigtFit
# column 1 : Wavelength
# column 2 : Normalized flux
# column 3 : Normalized error
# column 4 : Best-fit profile
# column 5 : Pixel mask, 1=included, 0=excluded
1330.095   1.0800   0.0802   1.0000   1
1330.125   1.0623   0.0795   1.0000   1
1330.155   1.0877   0.0804   1.0000   1
1330.185   1.0778   0.0801   1.0000   1
1330.215   1.0370   0.0787   1.0000   1
1330.245   1.0321   0.0785   1.0000   1
1330.275   1.0530   0.0793   1.0000   1
1330.305   1.0598   0.0796   1.0000   1
1330.335   1.0570   0.0795   1.0000   1
1330.364   1.0042   0.0775   1.0000   1
1330.394   1.0216   0.0783   1.0000   1
1330.424   0.9957   0.0774   1.0000   1
1330.454   1.0351   0.0788   1.0000   1
1330.484   0.9590   0.0761   1.0000   1
1330.514   1.0271   0.0785   1.0000   1
1330.544   1.0009   0.0776   1.0000   1
1330.574   0.9136   0.0744   1.0000   1
1330.604   0.9783   0.0769   1.0000   1
1330.634   1.0732   0.0802   1.0000   1
1330.663   0.9932   0.0774   1.0000   1
1330.693   1.0241   0.0785   1.0000   1
1330.723   1.0463   0.0794   1.0000   1
1330.753   1.0856   0.0807   1.0000   1
1330.783   0.8994   0.0740   1.0000   1
1330.813   1.0639   0.0799   1.0000   1
1330.843   0.9844   0.0772   1.0000   1
1330.873   1.0658   0.0800   1.0000   1
1330.903   0.9629   0.0764   1.0000   1
1330.933   1.0277   0.0787   1.0000   1
1330.962   0.9596   0.0764   1.0000   1
1330.992   0.9970   0.0777   1.0000   1
1331.022   1.0095   0.0782   1.0000   1
1331.052   0.9421   0.0758   1.0000   1
1331.082   0.9651   0.0766   1.0000   1
1331.112   1.0766   0.0806   1.0000   1
1331.142   0.9871   0.0775   1.0000   1
1331.172   1.0873   0.0810   1.0000   1
1331.202   1.0533   0.0798   1.0000   1
1331.232   0.9261   0.0753   1.0000   1
1331.261   1.0364   0.0793   1.0000   1
1331.291   1.0420   0.0795   1.0000   1
1331.321   0.9926   0.0776   1.0000   1
1331.351   1.0323   0.0791   1.0000   1
1331.381   0.9992   0.0780   1.0000   1
1331.411   1.0522   0.0799   1.0000   1
1331.441   0.9414   0.0759   1.0000   1
1331.471   0.9987   0.0780   1.0000   1
1331.501   1.1503   0.0833   1.0000   1
1331.531   0.9960   0.0779   1.0000   1
1331.560   1.0032   0.0782   1.0000   1
1331.590   0.9733   0.0771   1.0000   1
1331.620   0.9981   0.0781   1.0000   1
1331.650   0.9888   0.0777   1.0000   1
1331.680   1.0344   0.0794   1.0000   1
1331.710   1.0274   0.0792   1.0000   1
1331.740   0.9847   0.0776   1.0000   1
1331.770   1.0022   0.0783   1.0000   1
1331.800   0.9591   0.0768   1.0000   1
1331.829   0.9787   0.0775   1.0000   1
1331.859   0.9183   0.0753   1.0000   1
1331.889   1.0332   0.0795   1.0000   1
1331.919   0.9718   0.0773   1.0000   1
1331.949   0.9343   0.0759   1.0000   1
1331.979   0.9820   0.0781   1.0000   1
1332.009   1.0062   0.0790   1.0000   1
1332.039   0.9945   0.0789   1.0000   1
1332.069   0.9526   0.0777   1.0000   1
1332.099   1.0154   0.0803   1.0000   1
1332.128   0.9465   0.0779   1.0000   1
1332.158   1.0754   0.0825   1.0000   1
1332.188   1.0103   0.0800   1.0000   1
1332.218   1.0732   0.0825   1.0000   1
1332.248   1.0199   0.0807   1.0000   1
1332.278   0.9708   0.0787   1.0000   1
1332.308   0.9499   0.0782   1.0000   1
1332.338   0.9696   0.0788   1.0000   1
1332.368   0.8099   0.0722   1.0000   1
1332.398   1.0085   0.0796   1.0000   1
1332.427   0.9971   0.0787   1.0000   1
1332.457   1.0255   0.0796   1.0000   1
1332.487   1.0548   0.0806   1.0000   1
1332.517   1.0316   0.0798   1.0000   1
1332.547   0.9936   0.0784   1.0000   1
1332.577   1.0877   0.0818   1.0000   1
1332.607   0.9394   0.0765   1.0000   1
1332.637   0.9770   0.0779   1.0000   1
1332.667   0.9800   0.0780   1.0000   1
1332.697   1.0271   0.0797   1.0000   1
1332.726   1.0775   0.0815   1.0000   1
1332.756   0.9649   0.0776   1.0000   1
1332.786   0.9228   0.0760   1.0000   1
1332.816   0.9225   0.0760   1.0000   1
1332.846   0.9547   0.0773   1.0000   1
1332.876   0.9290   0.0762   1.0000   1
1332.906   1.0261   0.0798   1.0000   1
1332.936   1.0325   0.0801   1.0000   1
1332.966   1.0384   0.0803   1.0000   1
1332.995   0.9826   0.0783   1.0000   1
1333.025   1.0128   0.0794   1.0000   1
1333.055   0.9483   0.0775   0.9998   1
1333.085   0.9722   0.0793   0.9992   1
1333.115   0.9561   0.0794   0.9964   1
1333.145   0.9218   0.0781   0.9878   1
1333.175   0.9511   0.0791   0.9662   1
1333.205   0.9296   0.0779   0.9240   1
1333.235   0.8760   0.0755   0.8632   1
1333.265   0.8121   0.0730   0.7998   1
1333.294   0.7510   0.0701   0.7604   1
1333.324   0.7808   0.0716   0.7652   1
1333.354   0.7687   0.0712   0.8106   1
1333.384   0.8983   0.0768   0.8749   1
1333.414   0.9425   0.0785   0.9310   1
1333.444   0.9755   0.0800   0.9610   1
1333.474   0.9622   0.0790   0.9602   1
1333.504   0.9633   0.0784   0.9304   1
1333.534   0.8960   0.0754   0.8824   1
1333.564   0.7814   0.0707   0.8406   1
1333.593   0.8344   0.0729   0.8298   1
1333.623   0.9290   0.0766   0.8571   1
1333.653   0.8778   0.0746   0.9064   1
1333.683   0.9359   0.0769   0.9521   1
1333.713   0.9747   0.0783   0.9810   1
1333.743   0.9510   0.0775   0.9942   1
1333.773   0.9283   0.0767   0.9986   1
1333.803   0.9392   0.0770   0.9996   1
1333.833   1.0437   0.0809   0.9998   1
1333.863   0.9976   0.0793   0.9996   1
1333.892   0.9513   0.0775   0.9991   1
1333.922   1.0061   0.0796   0.9981   1
1333.952   0.9399   0.0771   0.9961   1
1333.982   0.9596   0.0779   0.9924   1
1334.012   0.9566   0.0778   0.9856   1
1334.042   0.9558   0.0778   0.9737   1
1334.072   0.9172   0.0763   0.9540   1
1334.102   0.8835   0.0751   0.9233   1
1334.132   0.9287   0.0768   0.8775   1
1334.161   0.7747   0.0707   0.8134   1
1334.191   0.7161   0.0682   0.7306   1
1334.221   0.6331   0.0646   0.6313   1
1334.251   0.5744   0.0618   0.5213   1
1334.281   0.3587   0.0501   0.4101   1
1334.311   0.2794   0.0450   0.3073   1
1334.341   0.2625   0.0438   0.2201   1
1334.371   0.1775   0.0370   0.1526   1
1334.401   0.1289   0.0326   0.1044   1
1334.431   0.0796   0.0272   0.0720   1
1334.460   0.0502   0.0220   0.0514   1
1334.490   0.0251   0.0182   0.0392   1
1334.520   0.0263   0.0182   0.0325   1
1334.550   0.0245   0.0181   0.0291   1
1334.580   0.0229   0.0169   0.0278   1
1334.610   0.0172   0.0163   0.0276   1
1334.640   0.0144   0.0156   0.0282   1
1334.670   0.0296   0.0193   0.0293   1
1334.700   0.0548   0.0240   0.0314   1
1334.730   0.0955   0.0293   0.0357   1
1334.759   0.1247   0.0328   0.0443   1
1334.789   0.1031   0.0306   0.0605   1
1334.819   0.1115   0.0313   0.0895   1
1334.849   0.1116   0.0311   0.1384   1
1334.879   0.1273   0.0327   0.2142   1
1334.909   0.3065   0.0474   0.3187   1
1334.939   0.4278   0.0552   0.4465   1
1334.969   0.6785   0.0682   0.5836   1
1334.999   0.8164   0.0750   0.7121   1
1335.029   0.8970   0.0782   0.8176   1
1335.058   0.8371   0.0754   0.8943   1
1335.088   0.9536   0.0799   0.9437   1
1335.118   1.0020   0.0813   0.9720   1
1335.148   0.9788   0.0798   0.9871   1
1335.178   1.0023   0.0803   0.9945   1
1335.208   0.9034   0.0765   0.9978   1
1335.238   1.0477   0.0819   0.9991   1
1335.268   0.9929   0.0798   0.9997   1
1335.298   0.9622   0.0788   0.9999   0
1335.328   0.9268   0.0775   0.9999   0
1335.357   0.8778   0.0754   1.0000   0
1335.387   0.8786   0.0757   1.0000   0
1335.417   0.9465   0.0782   1.0000   0
1335.447   0.8878   0.0761   1.0000   0
1335.477   0.8302   0.0738   1.0000   0
1335.507   0.8562   0.0748   1.0000   0
1335.537   0.8795   0.0758   1.0000   0
1335.567   0.8070   0.0729   1.0000   0
1335.597   0.6723   0.0670   1.0000   0
1335.627   0.6233   0.0648   1.0000   0
1335.656   0.5879   0.0632   1.0000   0
1335.686   0.4919   0.0585   1.0000   0
1335.716   0.3686   0.0512   1.0000   0
1335.746   0.2764   0.0452   1.0000   0
1335.776   0.2646   0.0444   1.0000   0
1335.806   0.4503   0.0562   1.0000   0
1335.836   0.6719   0.0672   1.0000   0
1335.866   0.8022   0.0733   1.0000   0
1335.896   0.8549   0.0760   1.0000   0
1335.925   0.8833   0.0774   1.0000   0
1335.955   0.9350   0.0796   1.0000   0
1335.985   0.8857   0.0776   1.0000   0
1336.015   0.9321   0.0793   1.0000   0
1336.045   0.9687   0.0804   1.0000   0
1336.075   1.0033   0.0817   1.0000   0
1336.105   0.9946   0.0814   1.0000   0
1336.135   1.0375   0.0830   1.0000   1
1336.165   0.9755   0.0811   1.0000   1
1336.195   0.9478   0.0804   1.0000   1
1336.224   0.9692   0.0815   1.0000   1
1336.254   1.0357   0.0832   1.0000   1
1336.284   1.0094   0.0817   1.0000   1
1336.314   0.9486   0.0789   1.0000   1
1336.344   0.9847   0.0803   1.0000   1
1336.374   0.9419   0.0788   1.0000   1
1336.404   0.9526   0.0791   1.0000   1
1336.434   1.0226   0.0818   1.0000   1
1336.464   0.9369   0.0787   1.0000   1
1336.494   1.0058   0.0812   1.0000   1
1336.523   0.9884   0.0805   1.0000   1
1336.553   0.9472   0.0791   1.0000   1
1336.583   0.9737   0.0801   1.0000   1
1336.613   1.0044   0.0813   1.0000   1
1336.643   1.0295   0.0822   1.0000   1
1336.673   0.9854   0.0806   1.0000   1
1336.703   1.0340   0.0822   1.0000   1
1336.733   0.9972   0.0810   1.0000   1
1336.763   0.9392   0.0788   1.0000   1
1336.792   0.9388   0.0788   1.0000   1
1336.822   1.0310   0.0823   1.0000   1
1336.852   1.0241   0.0822   1.0000   1
1336.882   1.0102   0.0816   1.0000   1
1336.912   1.0930   0.0846   1.0000   1
1336.942   0.9845   0.0807   1.0000   1
1336.972   1.0097   0.0817   1.0000   1
1337.002   1.0403   0.0829   1.0000   1
1337.032   0.9972   0.0812   1.0000   1
1337.062   1.0054   0.0816   1.0000   1
1337.091   1.0402   0.0829   1.0000   1
1337.121   1.0050   0.0816   1.0000   1
1337.151   0.9308   0.0788   1.0000   1
1337.181   1.0586   0.0837   1.0000   1
1337.211   0.9701   0.0803   1.0000   1
1337.241   0.9898   0.0811   1.0000   1
1337.271   0.9810   0.0809   1.0000   1
1337.301   0.9488   0.0796   1.0000   1
1337.331   0.9604   0.0801   1.0000   1
1337.361   0.9945   0.0814   1.0000   1
1337.390   1.0169   0.0822   1.0000   1
1337.420   1.0032   0.0817   1.0000   1
1337.450   0.9619   0.0802   1.0000   1
1337.480   0.9578   0.0800   1.0000   1
1337.510   0.9736   0.0806   1.0000   1
1337.540   0.9896   0.0813   1.0000   1
1337.570   0.9496   0.0798   1.0000   1
1337.600   1.0106   0.0820   1.0000   1
1337.630   1.0036   0.0819   1.0000   1
1337.660   1.0035   0.0820   1.0000   1
1337.689   1.0525   0.0838   1.0000   1
1337.719   0.9292   0.0791   1.0000   1
1337.749   1.0216   0.0826   1.0000   1
1337.779   0.9558   0.0802   1.0000   1
1337.809   1.0509   0.0837   1.0000   1
1337.839   1.0267   0.0829   1.0000   1
1337.869   1.0269   0.0829   1.0000   1
1337.899   0.9558   0.0803   1.0000   1
1337.929   0.9783   0.0811   1.0000   1
1337.959   1.0665   0.0845   1.0000   1
1337.988   0.9638   0.0806   1.0000   1
1338.018   1.0373   0.0834   1.0000   1
1338.048   1.0181   0.0826   1.0000   1
1338.078   0.9938   0.0817   1.0000   1
1338.108   1.0714   0.0846   1.0000   1
1338.138   1.0029   0.0822   1.0000   1
1338.168   0.9664   0.0807   1.0000   1
1338.198   0.9686   0.0809   1.0000   1
1338.228   0.9909   0.0818   1.0000   1
1338.257   1.0732   0.0849   1.0000   1
1338.287   1.0953   0.0857   1.0000   1
1338.317   1.0068   0.0825   1.0000   1
1338.347   1.0771   0.0851   1.0000   1
1338.377   1.0263   0.0832   1.0000   1
1338.407   1.0024   0.0823   1.0000   1
1338.437   1.0522   0.0841   1.0000   1
1338.467   1.0713   0.0850   1.0000   1
1338.497   1.0172   0.0830   1.0000   1
1338.527   0.9657   0.0810   1.0000   1
1338.556   1.0325   0.0835   1.0000   1
1338.586   0.9816   0.0817   1.0000   1
1338.616   1.0384   0.0839   1.0000   1
1338.646   0.9396   0.0801   1.0000   1
1338.676   1.0236   0.0833   1.0000   1
1338.706   1.0559   0.0845   1.0000   1
1338.736   1.1135   0.0867   1.0000   1
1338.766   0.9352   0.0799   1.0000   1
1338.796   1.0346   0.0838   1.0000   1
1338.826   1.0304   0.0837   1.0000   1
1338.855   1.0769   0.0855   1.0000   1
1338.885   1.0312   0.0837   1.0000   1
1338.915   1.0856   0.0858   1.0000   1
1338.945   1.0034   0.0827   1.0000   1
1338.975   1.0024   0.0827   1.0000   1
