# Best-fit normalized data and profile from VoigtFit
# column 1 : Wavelength
# column 2 : Normalized flux
# column 3 : Normalized error
# column 4 : Best-fit profile
# column 5 : Pixel mask, 1=included, 0=excluded
1202.492   1.0663   0.0965   1.0000   1
1202.521   0.9139   0.0900   1.0000   1
1202.551   0.9511   0.0917   1.0000   1
1202.581   0.9788   0.0929   1.0000   1
1202.611   0.9126   0.0900   1.0000   1
1202.641   1.0018   0.0941   1.0000   1
1202.671   1.0131   0.0946   1.0000   1
1202.701   0.9515   0.0920   1.0000   1
1202.731   0.9865   0.0935   1.0000   1
1202.761   0.9529   0.0922   1.0000   1
1202.790   1.0011   0.0943   1.0000   1
1202.820   0.9439   0.0918   1.0000   1
1202.850   0.9743   0.0933   1.0000   1
1202.880   0.9696   0.0930   1.0000   1
1202.910   0.9857   0.0938   1.0000   1
1202.940   0.9007   0.0901   1.0000   1
1202.970   0.9439   0.0920   1.0000   1
1203.000   1.0067   0.0948   1.0000   1
1203.029   0.9785   0.0937   1.0000   1
1203.059   0.9851   0.0941   1.0000   1
1203.089   1.0090   0.0952   1.0000   1
1203.119   0.9813   0.0938   1.0000   1
1203.149   1.0225   0.0959   1.0000   1
1203.179   1.0040   0.0950   1.0000   1
1203.209   0.9556   0.0930   1.0000   1
1203.239   0.9632   0.0933   1.0000   1
1203.268   1.1025   0.0994   1.0000   1
1203.298   1.0374   0.0967   1.0000   1
1203.328   1.0041   0.0953   1.0000   1
1203.358   0.9722   0.0940   1.0000   1
1203.388   0.9745   0.0943   1.0000   1
1203.418   1.0873   0.0991   1.0000   1
1203.448   1.0124   0.0960   1.0000   1
1203.478   1.0131   0.0961   1.0000   1
1203.507   0.9006   0.0912   1.0000   1
1203.537   1.0049   0.0959   1.0000   1
1203.567   1.0115   0.0962   1.0000   1
1203.597   0.9287   0.0926   1.0000   1
1203.627   0.9965   0.0956   1.0000   1
1203.657   0.9931   0.0956   1.0000   1
1203.687   0.9560   0.0941   1.0000   1
1203.717   0.9461   0.0936   1.0000   1
1203.746   0.9334   0.0931   1.0000   1
1203.776   1.0188   0.0970   1.0000   1
1203.806   1.0068   0.0965   1.0000   1
1203.836   1.0157   0.0970   1.0000   1
1203.866   1.0219   0.0973   1.0000   1
1203.896   0.9469   0.0941   1.0000   1
1203.926   1.0328   0.0979   1.0000   1
1203.956   1.0123   0.0971   1.0000   1
1203.986   0.9766   0.0955   1.0000   1
1204.015   1.1051   0.1011   1.0000   1
1204.045   1.0788   0.1001   1.0000   1
1204.075   1.0052   0.0969   1.0000   1
1204.105   0.9217   0.0932   1.0000   1
1204.135   1.0184   0.0977   1.0000   1
1204.165   1.0001   0.0969   1.0000   1
1204.195   0.9329   0.0939   1.0000   1
1204.225   1.0491   0.0991   1.0000   1
1204.254   0.9710   0.0958   1.0000   1
1204.284   1.0313   0.0985   1.0000   1
1204.314   1.0352   0.0987   1.0000   1
1204.344   1.0201   0.0980   1.0000   1
1204.374   0.9667   0.0958   1.0000   1
1204.404   1.1038   0.1019   1.0000   1
1204.434   1.0631   0.1001   1.0000   1
1204.464   1.0069   0.0976   1.0000   1
1204.493   1.0672   0.1004   1.0000   1
1204.523   0.9228   0.0940   1.0000   1
1204.553   0.9575   0.0957   1.0000   1
1204.583   0.9587   0.0958   1.0000   1
1204.613   0.9164   0.0939   1.0000   1
1204.643   0.9878   0.0972   1.0000   1
1204.673   0.9734   0.0967   1.0000   1
1204.703   1.0406   0.0995   1.0000   1
1204.732   0.9510   0.0957   1.0000   1
1204.762   1.0613   0.1007   1.0000   1
1204.792   0.9662   0.0966   1.0000   1
1204.822   0.9919   0.0977   1.0000   1
1204.852   1.1011   0.1026   1.0000   1
1204.882   1.0778   0.1017   1.0000   1
1204.912   1.0245   0.0996   1.0000   1
1204.942   1.0809   0.1020   1.0000   1
1204.971   1.0139   0.0992   0.9999   1
1205.001   0.9770   0.0975   0.9999   1
1205.031   0.9941   0.0984   0.9999   1
1205.061   1.0384   0.1005   0.9999   1
1205.091   0.9242   0.0953   0.9999   1
1205.121   1.0314   0.1001   0.9998   1
1205.151   0.9536   0.0968   0.9993   1
1205.181   1.0745   0.1023   0.9967   1
1205.211   1.0181   0.0997   0.9859   1
1205.240   0.9156   0.0953   0.9520   1
1205.270   0.8356   0.0913   0.8718   1
1205.300   0.8001   0.0897   0.7351   1
1205.330   0.6221   0.0798   0.5743   1
1205.360   0.3665   0.0638   0.4495   1
1205.390   0.4497   0.0694   0.4124   1
1205.420   0.5040   0.0730   0.4789   1
1205.450   0.6155   0.0802   0.6227   1
1205.479   0.8014   0.0910   0.7800   1
1205.509   0.8406   0.0937   0.8904   1
1205.539   0.8630   0.0957   0.9207   1
1205.569   0.8291   0.0933   0.8609   1
1205.599   0.7883   0.0905   0.7292   1
1205.629   0.5967   0.0801   0.6001   1
1205.659   0.5575   0.0777   0.5598   1
1205.689   0.5961   0.0805   0.6374   1
1205.718   0.8441   0.0940   0.7807   1
1205.748   0.9052   0.0973   0.9043   1
1205.778   0.9457   0.0990   0.9700   1
1205.808   0.9852   0.1011   0.9932   1
1205.838   1.0336   0.1031   0.9987   1
1205.868   0.9961   0.1012   0.9995   1
1205.898   0.9720   0.1001   0.9993   1
1205.928   0.9530   0.0993   0.9988   1
1205.957   1.0598   0.1038   0.9976   1
1205.987   0.9701   0.0995   0.9953   1
1206.017   1.0591   0.1035   0.9910   1
1206.047   0.9458   0.0984   0.9833   1
1206.077   0.9262   0.0976   0.9698   1
1206.107   0.9004   0.0964   0.9475   1
1206.137   0.9218   0.0974   0.9128   1
1206.167   0.8824   0.0956   0.8616   1
1206.197   0.8218   0.0926   0.7910   1
1206.226   0.7994   0.0916   0.6997   1
1206.256   0.5789   0.0792   0.5916   1
1206.286   0.4695   0.0723   0.4749   1
1206.316   0.3635   0.0651   0.3597   1
1206.346   0.2570   0.0563   0.2567   1
1206.376   0.1271   0.0411   0.1738   1
1206.406   0.1051   0.0398   0.1128   1
1206.436   0.0785   0.0351   0.0715   1
1206.465   0.0507   0.0302   0.0455   1
1206.495   0.0295   0.0255   0.0302   1
1206.525   0.0218   0.0243   0.0221   1
1206.555   0.0493   0.0290   0.0184   1
1206.585   0.0263   0.0245   0.0180   1
1206.615   0.0385   0.0279   0.0207   1
1206.645   0.0391   0.0264   0.0274   1
1206.675   0.0581   0.0324   0.0402   1
1206.704   0.0958   0.0381   0.0628   1
1206.734   0.1556   0.0470   0.0994   1
1206.764   0.1353   0.0447   0.1546   1
1206.794   0.1966   0.0523   0.2314   1
1206.824   0.2365   0.0555   0.3290   1
1206.854   0.3480   0.0655   0.4418   1
1206.884   0.6341   0.0846   0.5594   1
1206.914   0.7754   0.0919   0.6705   1
1206.943   0.8392   0.0952   0.7670   1
1206.973   0.9145   0.0991   0.8440   1
1207.003   1.0703   0.1063   0.9004   1
1207.033   0.9665   0.1017   0.9392   1
1207.063   0.9296   0.0999   0.9645   1
1207.093   0.9840   0.1027   0.9801   1
1207.123   0.9788   0.1026   0.9893   1
1207.153   1.1567   0.1107   0.9944   1
1207.182   0.9884   0.1032   0.9971   1
1207.212   1.0126   0.1045   0.9985   1
1207.242   1.1115   0.1088   0.9993   1
1207.272   1.0973   0.1084   0.9996   1
1207.302   1.0929   0.1082   0.9998   1
1207.332   1.0833   0.1079   0.9998   1
1207.362   1.0637   0.1070   0.9999   1
1207.392   0.9817   0.1034   0.9999   1
1207.422   1.1340   0.1103   0.9999   1
1207.451   1.1559   0.1115   0.9999   1
1207.481   1.0586   0.1072   0.9999   1
1207.511   1.1481   0.1114   0.9999   1
1207.541   1.0822   0.1083   0.9999   1
1207.571   0.9845   0.1040   0.9999   1
1207.601   1.0690   0.1081   0.9999   1
1207.631   0.9375   0.1017   0.9999   1
1207.661   1.0336   0.1065   1.0000   1
1207.690   1.0566   0.1077   1.0000   1
1207.720   0.9119   0.1008   1.0000   1
1207.750   0.9723   0.1038   1.0000   1
1207.780   1.0831   0.1092   1.0000   1
1207.810   0.9615   0.1036   1.0000   1
1207.840   1.0838   0.1094   1.0000   1
1207.870   0.9502   0.1029   1.0000   1
1207.900   1.0017   0.1056   1.0000   1
1207.929   0.9804   0.1047   1.0000   1
1207.959   1.0270   0.1071   1.0000   1
1207.989   0.9964   0.1063   1.0000   1
1208.019   1.0011   0.1072   1.0000   1
1208.049   1.0116   0.1081   1.0000   1
1208.079   1.0415   0.1099   1.0000   1
1208.109   1.1695   0.1153   1.0000   1
1208.139   1.0184   0.1081   1.0000   1
1208.168   1.1097   0.1129   1.0000   1
1208.198   1.0550   0.1102   1.0000   1
1208.228   1.0914   0.1125   1.0000   1
1208.258   0.9714   0.1069   1.0000   1
1208.288   0.9958   0.1081   1.0000   1
1208.318   1.0359   0.1102   1.0000   1
1208.348   0.9377   0.1056   1.0000   1
1208.378   0.9521   0.1061   1.0000   1
1208.408   1.0979   0.1129   1.0000   1
1208.437   0.9775   0.1068   1.0000   1
1208.467   1.0812   0.1110   1.0000   1
1208.497   0.9883   0.1067   1.0000   1
1208.527   0.9819   0.1061   1.0000   1
1208.557   1.0687   0.1106   1.0000   1
1208.587   1.0808   0.1114   1.0000   1
1208.617   0.9511   0.1049   1.0000   1
1208.647   0.9569   0.1057   1.0000   1
1208.676   1.0514   0.1104   1.0000   1
1208.706   1.0346   0.1095   1.0000   1
1208.736   1.0963   0.1124   1.0000   1
1208.766   1.0827   0.1121   1.0000   1
1208.796   1.0135   0.1088   1.0000   1
1208.826   0.9330   0.1049   1.0000   1
1208.856   0.9599   0.1065   1.0000   1
1208.886   0.9812   0.1074   1.0000   1
1208.915   1.0708   0.1120   1.0000   1
1208.945   1.0744   0.1122   1.0000   1
1208.975   1.0035   0.1087   1.0000   1
1209.005   1.0179   0.1097   1.0000   1
1209.035   1.1180   0.1146   1.0000   1
1209.065   1.0569   0.1124   1.0000   1
1209.095   1.0554   0.1131   1.0000   1
1209.125   1.0129   0.1115   1.0000   1
1209.154   1.0898   0.1155   1.0000   1
1209.184   1.1054   0.1163   1.0000   1
1209.214   1.0227   0.1127   1.0000   1
1209.244   1.0680   0.1147   1.0000   1
1209.274   0.9137   0.1075   1.0000   1
1209.304   1.0570   0.1141   1.0000   1
1209.334   1.0074   0.1114   1.0000   1
1209.364   1.0296   0.1121   1.0000   1
1209.394   1.0130   0.1121   1.0000   1
1209.423   0.9768   0.1105   1.0000   1
1209.453   1.0161   0.1128   1.0000   1
1209.483   1.0547   0.1149   1.0000   1
1209.513   1.0565   0.1146   1.0000   1
1209.543   0.9529   0.1088   1.0000   1
1209.573   0.9925   0.1105   1.0000   1
1209.603   1.0459   0.1129   1.0000   1
1209.633   0.9497   0.1080   1.0000   1
1209.662   0.9377   0.1075   1.0000   1
1209.692   0.9600   0.1085   1.0000   1
1209.722   1.0649   0.1140   1.0000   1
1209.752   1.1068   0.1161   1.0000   1
1209.782   0.9341   0.1078   1.0000   1
1209.812   0.9808   0.1103   1.0000   1
1209.842   1.0586   0.1142   1.0000   1
1209.872   0.9444   0.1085   1.0000   1
1209.901   1.0386   0.1135   1.0000   1
1209.931   0.9855   0.1108   1.0000   1
1209.961   0.8570   0.1042   1.0000   1
1209.991   0.9579   0.1096   1.0000   1
1210.021   0.7615   0.0991   1.0000   1
1210.051   0.9382   0.1089   1.0000   1
1210.081   0.8924   0.1065   1.0000   1
1210.111   0.9478   0.1096   1.0000   1
1210.140   0.9435   0.1094   1.0000   1
1210.170   0.9773   0.1112   1.0000   1
1210.200   0.9318   0.1090   1.0000   1
1210.230   0.8366   0.1038   1.0000   1
1210.260   0.8982   0.1074   1.0000   1
1210.290   0.9475   0.1102   1.0000   1
1210.320   0.9829   0.1121   1.0000   1
1210.350   0.9134   0.1083   1.0000   1
1210.380   0.9302   0.1095   1.0000   1
1210.409   0.8935   0.1073   1.0000   1
1210.439   0.8366   0.1045   1.0000   1
1210.469   0.8873   0.1075   1.0000   1
1210.499   0.8783   0.1071   1.0000   1
