# Best-fit normalized data and profile from VoigtFit
# column 1 : Wavelength
# column 2 : Normalized flux
# column 3 : Normalized error
# column 4 : Best-fit profile
# column 5 : Pixel mask, 1=included, 0=excluded
1330.099   1.0359   0.0900   1.0000   1
1330.129   1.0762   0.0915   1.0000   1
1330.159   1.1179   0.0931   1.0000   1
1330.189   0.9748   0.0875   1.0000   1
1330.219   0.9699   0.0873   1.0000   1
1330.249   1.0396   0.0901   1.0000   1
1330.279   1.0950   0.0925   1.0000   1
1330.309   1.0343   0.0901   1.0000   1
1330.339   0.9699   0.0874   1.0000   1
1330.368   0.9701   0.0875   1.0000   1
1330.398   0.9239   0.0856   1.0000   1
1330.428   0.9896   0.0884   1.0000   1
1330.458   1.0278   0.0900   1.0000   1
1330.488   0.9754   0.0878   1.0000   1
1330.518   1.0635   0.0915   1.0000   1
1330.548   0.9697   0.0877   1.0000   1
1330.578   1.0921   0.0926   1.0000   1
1330.608   1.0482   0.0910   1.0000   1
1330.638   1.0243   0.0900   1.0000   1
1330.668   1.0322   0.0904   1.0000   1
1330.698   1.0483   0.0911   1.0000   1
1330.728   0.9954   0.0891   1.0000   1
1330.758   0.9368   0.0866   1.0000   1
1330.788   1.0480   0.0912   1.0000   1
1330.818   1.0320   0.0904   1.0000   1
1330.848   1.0366   0.0907   1.0000   1
1330.877   1.0172   0.0901   1.0000   1
1330.907   1.0085   0.0897   1.0000   1
1330.937   0.9869   0.0889   1.0000   1
1330.967   1.0581   0.0919   1.0000   1
1330.997   1.0265   0.0904   1.0000   1
1331.027   0.9685   0.0879   1.0000   1
1331.057   1.0971   0.0934   1.0000   1
1331.087   1.0819   0.0929   1.0000   1
1331.117   1.0237   0.0907   1.0000   1
1331.147   1.0292   0.0909   1.0000   1
1331.177   1.0542   0.0920   1.0000   1
1331.207   1.0823   0.0929   1.0000   1
1331.237   1.0532   0.0918   1.0000   1
1331.267   1.0807   0.0929   1.0000   1
1331.297   0.9739   0.0848   1.0000   1
1331.327   0.8932   0.0795   1.0000   1
1331.357   1.0748   0.0866   1.0000   1
1331.386   0.9704   0.0826   1.0000   1
1331.416   1.0012   0.0838   1.0000   1
1331.446   1.0089   0.0842   1.0000   1
1331.476   0.9837   0.0832   1.0000   1
1331.506   1.0140   0.0845   1.0000   1
1331.536   0.9830   0.0831   1.0000   1
1331.566   1.0087   0.0844   1.0000   1
1331.596   0.8905   0.0797   1.0000   1
1331.626   0.9673   0.0828   1.0000   1
1331.656   1.0310   0.0855   1.0000   1
1331.686   1.0065   0.0845   1.0000   1
1331.716   1.0568   0.0866   1.0000   1
1331.746   1.0125   0.0849   1.0000   1
1331.776   0.9135   0.0812   1.0000   1
1331.806   1.0099   0.0850   1.0000   1
1331.836   1.0282   0.0858   1.0000   1
1331.866   0.9758   0.0837   1.0000   1
1331.895   0.9840   0.0842   1.0000   1
1331.925   0.9959   0.0848   1.0000   1
1331.955   0.9279   0.0821   1.0000   1
1331.985   0.9938   0.0849   1.0000   1
1332.015   0.9962   0.0851   1.0000   1
1332.045   0.9072   0.0814   1.0000   1
1332.075   0.9393   0.0827   1.0000   1
1332.105   0.9945   0.0846   1.0000   1
1332.135   1.0718   0.0874   1.0000   1
1332.165   0.9598   0.0831   1.0000   1
1332.195   1.0042   0.0847   1.0000   1
1332.225   0.9591   0.0831   1.0000   1
1332.255   0.9790   0.0839   1.0000   1
1332.285   0.9455   0.0825   1.0000   1
1332.315   1.0474   0.0866   1.0000   1
1332.345   0.9739   0.0838   1.0000   1
1332.375   0.9933   0.0845   1.0000   1
1332.404   0.9507   0.0829   1.0000   1
1332.434   0.9355   0.0824   0.9999   1
1332.464   0.9409   0.0822   0.9999   1
1332.494   0.9740   0.0839   0.9997   1
1332.524   0.9466   0.0828   0.9993   1
1332.554   0.9023   0.0811   0.9985   1
1332.584   1.0405   0.0866   0.9970   1
1332.614   1.0405   0.0866   0.9941   1
1332.644   0.9995   0.0852   0.9890   1
1332.674   0.9777   0.0842   0.9808   1
1332.704   0.9099   0.0814   0.9682   1
1332.734   0.9012   0.0813   0.9502   1
1332.764   0.9286   0.0825   0.9257   1
1332.794   0.9326   0.0825   0.8954   1
1332.824   0.8341   0.0786   0.8604   1
1332.854   0.7967   0.0769   0.8231   1
1332.883   0.8624   0.0799   0.7873   1
1332.913   0.7700   0.0758   0.7562   1
1332.943   0.6950   0.0725   0.7334   1
1332.973   0.7520   0.0750   0.7213   1
1333.003   0.7080   0.0730   0.7218   1
1333.033   0.7587   0.0754   0.7343   1
1333.063   0.7586   0.0756   0.7574   1
1333.093   0.7431   0.0751   0.7887   1
1333.123   0.7956   0.0778   0.8249   1
1333.153   0.8405   0.0797   0.8620   1
1333.183   0.9390   0.0838   0.8969   1
1333.213   0.9699   0.0852   0.9271   1
1333.243   0.9798   0.0856   0.9510   1
1333.273   0.9432   0.0844   0.9689   1
1333.303   1.0299   0.0880   0.9813   1
1333.333   0.9904   0.0865   0.9894   1
1333.363   1.1048   0.0911   0.9942   1
1333.392   0.9911   0.0865   0.9970   1
1333.422   0.9659   0.0851   0.9985   1
1333.452   0.9165   0.0832   0.9993   1
1333.482   0.9965   0.0861   0.9997   1
1333.512   0.9700   0.0849   0.9999   1
1333.542   0.9912   0.0858   0.9999   1
1333.572   0.9657   0.0849   0.9999   1
1333.602   1.0112   0.0866   0.9999   1
1333.632   0.9394   0.0838   0.9999   1
1333.662   1.0321   0.0876   0.9998   1
1333.692   0.9839   0.0856   0.9996   1
1333.722   0.9593   0.0848   0.9992   1
1333.752   1.0071   0.0867   0.9986   1
1333.782   1.0038   0.0861   0.9974   1
1333.812   0.9445   0.0841   0.9954   1
1333.842   0.9624   0.0849   0.9919   1
1333.872   1.0880   0.0898   0.9861   1
1333.901   0.9446   0.0841   0.9769   1
1333.931   0.9004   0.0823   0.9625   1
1333.961   0.9503   0.0846   0.9405   1
1333.991   1.0203   0.0873   0.9088   1
1334.021   0.8768   0.0814   0.8646   1
1334.051   0.8204   0.0792   0.8059   1
1334.081   0.8227   0.0792   0.7310   1
1334.111   0.6930   0.0734   0.6418   1
1334.141   0.6413   0.0706   0.5421   1
1334.171   0.5261   0.0647   0.4375   1
1334.201   0.3574   0.0547   0.3361   1
1334.231   0.1877   0.0415   0.2449   1
1334.261   0.0988   0.0326   0.1691   1
1334.291   0.0966   0.0320   0.1108   1
1334.321   0.0779   0.0295   0.0699   1
1334.351   0.0197   0.0182   0.0427   1
1334.381   0.0315   0.0211   0.0256   1
1334.410   0.0281   0.0190   0.0155   1
1334.440   0.0238   0.0179   0.0098   1
1334.470   0.0062   0.0147   0.0066   1
1334.500   0.0178   0.0173   0.0050   1
1334.530   0.0076   0.0143   0.0043   1
1334.560   0.0145   0.0164   0.0044   1
1334.590   0.0075   0.0149   0.0051   1
1334.620   0.0242   0.0176   0.0069   1
1334.650   0.0134   0.0160   0.0102   1
1334.680   0.0373   0.0229   0.0164   1
1334.710   0.0489   0.0243   0.0271   1
1334.740   0.0645   0.0275   0.0451   1
1334.770   0.1203   0.0345   0.0735   1
1334.800   0.1878   0.0418   0.1166   1
1334.830   0.2050   0.0436   0.1768   1
1334.860   0.1813   0.0406   0.2542   1
1334.890   0.2548   0.0473   0.3467   1
1334.919   0.4179   0.0592   0.4491   1
1334.949   0.5563   0.0671   0.5533   1
1334.979   0.7169   0.0756   0.6523   1
1335.009   0.7567   0.0774   0.7401   1
1335.039   0.8531   0.0816   0.8129   1
1335.069   0.9223   0.0847   0.8701   1
1335.099   0.8665   0.0821   0.9128   1
1335.129   0.9510   0.0861   0.9435   1
1335.159   0.9512   0.0862   0.9643   1
1335.189   0.9918   0.0878   0.9781   1
1335.219   0.8833   0.0832   0.9869   1
1335.249   0.9691   0.0870   0.9924   0
1335.279   0.9772   0.0873   0.9957   0
1335.309   0.9766   0.0872   0.9976   0
1335.339   0.9022   0.0842   0.9987   0
1335.369   0.8721   0.0829   0.9993   0
1335.399   1.0108   0.0888   0.9996   0
1335.428   0.8526   0.0822   0.9998   0
1335.458   0.9010   0.0842   0.9999   0
1335.488   0.7826   0.0792   0.9999   0
1335.518   0.7381   0.0770   1.0000   0
1335.548   0.7051   0.0754   1.0000   0
1335.578   0.4809   0.0635   1.0000   0
1335.608   0.4731   0.0629   1.0000   0
1335.638   0.3578   0.0559   1.0000   0
1335.668   0.2472   0.0478   1.0000   0
1335.698   0.1598   0.0401   1.0000   0
1335.728   0.1764   0.0414   1.0000   0
1335.758   0.2588   0.0479   1.0000   0
1335.788   0.4357   0.0608   1.0000   0
1335.818   0.6024   0.0705   1.0000   0
1335.848   0.6537   0.0733   1.0000   0
1335.878   0.8112   0.0806   1.0000   0
1335.908   0.8455   0.0821   1.0000   0
1335.937   0.9378   0.0863   1.0000   0
1335.967   0.8623   0.0833   1.0000   0
1335.997   0.8901   0.0846   1.0000   0
1336.027   0.8631   0.0833   1.0000   0
1336.057   1.0030   0.0894   1.0000   0
1336.087   1.0117   0.0896   1.0000   1
1336.117   0.8986   0.0850   1.0000   1
1336.147   0.9970   0.0892   1.0000   1
1336.177   1.0116   0.0899   1.0000   1
1336.207   1.0125   0.0899   1.0000   1
1336.237   0.9559   0.0875   1.0000   1
1336.267   0.9887   0.0888   1.0000   1
1336.297   0.9876   0.0891   1.0000   1
1336.327   0.9927   0.0891   1.0000   1
1336.357   1.0284   0.0907   1.0000   1
1336.387   1.0279   0.0907   1.0000   1
1336.417   0.9722   0.0885   1.0000   1
1336.446   0.9035   0.0856   1.0000   1
1336.476   1.0626   0.0921   1.0000   1
1336.506   0.9954   0.0894   1.0000   1
1336.536   0.9768   0.0887   1.0000   1
1336.566   1.0249   0.0907   1.0000   1
1336.596   0.9847   0.0892   1.0000   1
1336.626   1.0048   0.0899   1.0000   1
1336.656   1.0756   0.0930   1.0000   1
1336.686   0.9059   0.0860   1.0000   1
1336.716   0.8970   0.0855   1.0000   1
1336.746   1.0595   0.0926   1.0000   1
1336.776   1.0221   0.0914   1.0000   1
1336.806   0.9591   0.0894   1.0000   1
1336.836   0.8889   0.0864   1.0000   1
1336.866   1.0017   0.0921   1.0000   1
1336.896   1.0167   0.0931   1.0000   1
1336.926   0.9174   0.0893   1.0000   1
1336.955   0.9913   0.0928   1.0000   1
1336.985   0.9426   0.0902   1.0000   1
1337.015   0.9398   0.0900   1.0000   1
1337.045   1.0041   0.0932   1.0000   1
1337.075   1.0196   0.0944   1.0000   1
1337.105   1.0062   0.0937   1.0000   1
1337.135   0.9853   0.0932   1.0000   1
1337.165   0.9671   0.0916   1.0000   1
1337.195   1.0330   0.0930   1.0000   1
1337.225   0.9750   0.0905   1.0000   1
1337.255   1.0252   0.0922   1.0000   1
1337.285   1.0726   0.0938   1.0000   1
1337.315   0.9206   0.0874   1.0000   1
1337.345   1.0059   0.0911   1.0000   1
1337.375   1.0796   0.0941   1.0000   1
1337.405   1.0494   0.0928   1.0000   1
1337.435   0.9683   0.0895   1.0000   1
1337.464   0.9639   0.0894   1.0000   1
1337.494   1.0313   0.0923   1.0000   1
1337.524   0.9744   0.0900   1.0000   1
1337.554   0.9994   0.0911   1.0000   1
1337.584   0.9011   0.0868   1.0000   1
1337.614   0.9878   0.0906   1.0000   1
1337.644   1.0180   0.0917   1.0000   1
1337.674   1.0933   0.0949   1.0000   1
1337.704   1.0165   0.0919   1.0000   1
1337.734   1.0292   0.0924   1.0000   1
1337.764   1.0948   0.0952   1.0000   1
1337.794   1.0918   0.0951   1.0000   1
1337.824   1.0389   0.0930   1.0000   1
1337.854   1.0402   0.0931   1.0000   1
1337.884   0.9813   0.0907   1.0000   1
1337.914   0.9778   0.0905   1.0000   1
1337.944   0.9835   0.0910   1.0000   1
1337.973   0.9488   0.0894   1.0000   1
1338.003   1.0984   0.0957   1.0000   1
1338.033   1.1157   0.0964   1.0000   1
1338.063   1.0558   0.0936   1.0000   1
1338.093   1.0151   0.0922   1.0000   1
1338.123   0.9838   0.0910   1.0000   1
1338.153   1.0230   0.0928   1.0000   1
1338.183   1.1279   0.0972   1.0000   1
1338.213   0.9754   0.0908   1.0000   1
1338.243   0.9631   0.0903   1.0000   1
1338.273   1.1090   0.0962   1.0000   1
1338.303   1.0558   0.0943   1.0000   1
1338.333   1.0739   0.0950   1.0000   1
1338.363   1.0392   0.0937   1.0000   1
1338.393   1.0109   0.0926   1.0000   1
1338.423   0.9747   0.0912   1.0000   1
1338.453   1.0179   0.0929   1.0000   1
1338.482   0.9831   0.0916   1.0000   1
1338.512   0.9324   0.0892   1.0000   1
1338.542   0.9971   0.0919   1.0000   1
1338.572   1.0460   0.0943   1.0000   1
1338.602   1.0070   0.0927   1.0000   1
1338.632   1.0044   0.0925   1.0000   1
1338.662   1.0664   0.0953   1.0000   1
1338.692   1.0266   0.0937   1.0000   1
1338.722   0.9748   0.0915   1.0000   1
1338.752   0.9154   0.0890   1.0000   1
1338.782   1.0778   0.0960   1.0000   1
1338.812   0.9829   0.0921   1.0000   1
1338.842   1.0552   0.0949   1.0000   1
1338.872   0.9676   0.0915   1.0000   1
1338.902   0.9314   0.0900   1.0000   1
1338.932   0.9432   0.0904   1.0000   1
1338.961   1.0772   0.0961   1.0000   1
