# Best-fit normalized data and profile from VoigtFit
# column 1 : Wavelength
# column 2 : Normalized flux
# column 3 : Normalized error
# column 4 : Best-fit profile
# column 5 : Pixel mask, 1=included, 0=excluded
1543.030   0.9607   0.1573   1.0000   1
1543.067   1.0259   0.1631   1.0000   1
1543.103   0.8849   0.1550   1.0000   1
1543.140   1.0082   0.1617   1.0000   1
1543.177   0.9383   0.1591   1.0000   1
1543.213   0.9796   0.1604   1.0000   1
1543.250   1.0835   0.1683   1.0000   1
1543.287   0.9563   0.1568   1.0000   1
1543.324   0.9005   0.1536   1.0000   1
1543.360   1.1051   0.1697   1.0000   1
1543.397   0.9929   0.1628   1.0000   1
1543.434   0.9995   0.1632   1.0000   1
1543.471   1.1379   0.1728   1.0000   1
1543.507   1.1368   0.1707   1.0000   1
1543.544   0.8971   0.1510   1.0000   1
1543.581   0.9409   0.1531   1.0000   1
1543.617   0.9799   0.1558   1.0000   1
1543.654   1.0239   0.1589   1.0000   1
1543.691   0.9998   0.1571   1.0000   1
1543.728   0.9610   0.1546   1.0000   1
1543.764   0.8535   0.1468   1.0000   1
1543.801   1.0501   0.1605   1.0000   1
1543.838   0.9757   0.1557   1.0000   1
1543.875   0.9406   0.1533   1.0000   1
1543.911   1.1469   0.1670   1.0000   1
1543.948   1.0895   0.1630   1.0000   1
1543.985   1.0241   0.1587   1.0000   1
1544.022   1.1035   0.1642   1.0000   1
1544.058   0.8239   0.1448   1.0000   1
1544.095   0.9630   0.1547   1.0000   1
1544.132   0.9646   0.1545   1.0000   1
1544.168   1.0079   0.1576   1.0000   1
1544.205   1.0461   0.1604   1.0000   1
1544.242   0.9461   0.1533   1.0000   1
1544.279   0.9797   0.1559   1.0000   1
1544.315   0.9743   0.1556   1.0000   1
1544.352   1.0813   0.1628   1.0000   1
1544.389   1.2044   0.1705   1.0000   1
1544.426   1.0493   0.1607   1.0000   1
1544.462   0.9386   0.1529   1.0000   1
1544.499   0.9349   0.1527   1.0000   1
1544.536   1.2201   0.1717   1.0000   1
1544.572   0.9935   0.1570   1.0000   1
1544.609   1.0539   0.1605   1.0000   1
1544.646   1.0180   0.1586   1.0000   1
1544.683   1.0267   0.1592   1.0000   1
1544.719   0.9241   0.1518   1.0000   1
1544.756   1.0500   0.1609   1.0000   1
1544.793   0.9087   0.1508   1.0000   1
1544.830   1.0272   0.1586   1.0000   1
1544.866   1.0866   0.1626   1.0000   1
1544.903   0.9845   0.1565   1.0000   1
1544.940   1.1019   0.1642   1.0000   1
1544.976   0.9773   0.1559   1.0000   1
1545.013   1.0693   0.1620   1.0000   1
1545.050   1.0343   0.1598   1.0000   1
1545.087   1.0120   0.1578   1.0000   1
1545.123   0.9822   0.1560   1.0000   1
1545.160   1.0523   0.1611   1.0000   1
1545.197   0.9704   0.1555   1.0000   1
1545.234   0.9924   0.1569   1.0000   1
1545.270   0.9887   0.1565   1.0000   1
1545.307   1.0975   0.1641   1.0000   1
1545.344   0.9987   0.1575   1.0000   1
1545.380   0.8519   0.1470   1.0000   1
1545.417   0.9890   0.1569   1.0000   1
1545.454   1.0536   0.1611   1.0000   1
1545.491   1.0949   0.1639   1.0000   1
1545.527   1.0317   0.1597   1.0000   1
1545.564   0.8499   0.1470   1.0000   1
1545.601   0.9753   0.1559   1.0000   1
1545.638   0.9225   0.1516   1.0000   1
1545.674   0.9803   0.1564   1.0000   1
1545.711   1.1235   0.1659   1.0000   1
1545.748   0.9153   0.1511   0.9999   1
1545.784   0.9878   0.1562   0.9998   1
1545.821   1.0566   0.1613   0.9996   1
1545.858   1.2123   0.1715   0.9992   1
1545.895   0.9798   0.1563   0.9986   1
1545.931   1.1136   0.1653   0.9974   1
1545.968   0.9543   0.1545   0.9954   1
1546.005   0.9977   0.1568   0.9922   1
1546.042   0.9163   0.1518   0.9873   1
1546.078   1.0145   0.1588   0.9799   1
1546.115   0.9026   0.1511   0.9691   1
1546.152   0.9600   0.1548   0.9542   1
1546.189   0.9939   0.1575   0.9343   1
1546.225   0.9868   0.1565   0.9092   1
1546.262   0.9358   0.1534   0.8788   1
1546.299   0.8108   0.1442   0.8435   1
1546.335   0.8717   0.1484   0.8049   1
1546.372   0.6677   0.1326   0.7648   1
1546.409   0.6609   0.1325   0.7252   1
1546.446   0.6827   0.1342   0.6875   1
1546.482   0.6955   0.1353   0.6420   1
1546.519   0.5889   0.1262   0.5585   1
1546.556   0.4027   0.1080   0.4536   1
1546.593   0.5158   0.1196   0.4436   1
1546.629   0.4796   0.1153   0.5370   1
1546.666   0.6217   0.1292   0.6113   1
1546.703   0.7357   0.1381   0.6484   1
1546.739   0.6552   0.1320   0.6792   1
1546.776   0.7180   0.1372   0.7143   1
1546.813   0.8190   0.1449   0.7532   1
1546.850   0.8350   0.1462   0.7934   1
1546.886   0.6754   0.1336   0.8326   1
1546.923   0.8448   0.1469   0.8690   1
1546.960   0.8958   0.1507   0.9009   1
1546.997   0.9534   0.1546   0.9276   1
1547.033   0.8469   0.1466   0.9489   1
1547.070   1.0306   0.1600   0.9652   1
1547.107   1.0879   0.1639   0.9772   1
1547.143   1.2418   0.1734   0.9854   1
1547.180   0.9807   0.1563   0.9910   1
1547.217   1.1940   0.1706   0.9946   1
1547.254   0.9364   0.1536   0.9969   1
1547.290   0.9174   0.1524   0.9982   1
1547.327   0.9400   0.1538   0.9990   1
1547.364   0.9963   0.1576   0.9993   1
1547.401   1.0620   0.1623   0.9994   1
1547.437   0.9361   0.1537   0.9992   1
1547.474   0.9148   0.1519   0.9986   1
1547.511   1.0587   0.1621   0.9974   1
1547.548   1.0557   0.1618   0.9954   1
1547.584   0.8067   0.1441   0.9919   1
1547.621   1.0379   0.1607   0.9861   1
1547.658   0.9559   0.1550   0.9769   1
1547.694   0.9755   0.1562   0.9629   1
1547.731   0.9330   0.1536   0.9424   1
1547.768   0.7820   0.1423   0.9136   1
1547.805   0.8055   0.1440   0.8744   1
1547.841   0.7433   0.1391   0.8242   1
1547.878   0.7454   0.1395   0.7631   1
1547.915   0.8286   0.1460   0.6926   1
1547.952   0.6522   0.1319   0.6157   1
1547.988   0.5291   0.1209   0.5364   1
1548.025   0.5212   0.1203   0.4596   1
1548.062   0.3828   0.1058   0.3892   1
1548.098   0.2754   0.0933   0.3283   1
1548.135   0.2998   0.0968   0.2789   1
1548.172   0.2477   0.0899   0.2412   1
1548.209   0.3013   0.0968   0.2148   1
1548.245   0.1690   0.0774   0.1988   1
1548.282   0.1733   0.0793   0.1927   1
1548.319   0.2057   0.0841   0.1967   1
1548.356   0.1958   0.0825   0.2104   1
1548.392   0.2263   0.0873   0.2344   1
1548.429   0.2537   0.0906   0.2695   1
1548.466   0.2823   0.0945   0.3164   1
1548.502   0.3577   0.1037   0.3749   1
1548.539   0.4413   0.1122   0.4434   1
1548.576   0.5457   0.1226   0.5191   1
1548.613   0.7943   0.1434   0.5982   1
1548.649   0.6363   0.1307   0.6760   1
1548.686   0.7777   0.1420   0.7483   1
1548.723   0.8115   0.1447   0.8116   1
1548.760   0.7408   0.1387   0.8643   1
1548.796   0.9067   0.1517   0.9059   1
1548.833   0.9833   0.1573   0.9367   1
1548.870   0.8307   0.1461   0.9590   0
1548.907   0.8023   0.1441   0.9743   0
1548.943   0.7776   0.1420   0.9844   0
1548.980   0.7267   0.1382   0.9908   0
1549.017   0.7800   0.1424   0.9947   0
1549.053   0.8140   0.1450   0.9971   0
1549.090   0.6793   0.1343   0.9984   0
1549.127   0.6141   0.1289   0.9992   0
1549.164   0.7152   0.1371   0.9996   0
1549.200   0.6904   0.1352   0.9998   0
1549.237   0.6205   0.1285   0.9999   0
1549.274   0.8228   0.1455   0.9999   0
1549.311   0.7524   0.1401   1.0000   0
1549.347   0.9398   0.1540   1.0000   0
1549.384   0.9366   0.1539   1.0000   0
1549.421   0.9486   0.1545   1.0000   0
1549.457   0.9288   0.1535   1.0000   0
1549.494   1.0415   0.1610   1.0000   0
1549.531   1.0518   0.1612   1.0000   0
1549.568   1.0558   0.1621   1.0000   1
1549.604   1.0417   0.1613   1.0000   1
1549.641   0.9072   0.1520   1.0000   1
1549.678   0.8898   0.1508   1.0000   1
1549.715   0.8837   0.1503   1.0000   1
1549.751   1.0397   0.1619   1.0000   1
1549.788   0.9986   0.1613   1.0000   1
1549.825   0.9386   0.1596   1.0000   1
1549.861   0.9835   0.1626   1.0000   1
1549.898   1.0746   0.1692   1.0000   1
1549.935   1.0255   0.1652   1.0000   1
1549.972   1.0053   0.1630   1.0000   1
1550.008   0.8798   0.1539   1.0000   1
1550.045   1.1012   0.1705   1.0000   1
1550.082   1.0775   0.1701   1.0000   1
1550.119   1.1625   0.1754   1.0000   1
1550.155   0.9857   0.1638   1.0000   1
1550.192   0.9456   0.1608   1.0000   1
1550.229   0.9027   0.1565   1.0000   1
1550.265   1.1131   0.1715   1.0000   1
1550.302   0.9211   0.1557   1.0000   0
1550.339   1.1580   0.1700   1.0000   0
1550.376   0.9595   0.1558   1.0000   0
1550.412   0.8957   0.1511   1.0000   0
1550.449   0.9160   0.1525   1.0000   0
1550.486   0.7361   0.1391   1.0000   0
1550.523   0.7682   0.1418   1.0000   0
1550.559   0.6726   0.1339   1.0000   0
1550.596   0.6405   0.1314   1.0000   0
1550.633   0.6284   0.1303   1.0000   0
1550.670   0.5069   0.1192   1.0000   0
1550.706   0.5197   0.1204   1.0000   0
1550.743   0.4300   0.1109   1.0000   0
1550.780   0.5066   0.1194   1.0000   0
1550.816   0.4618   0.1143   1.0000   0
1550.853   0.4683   0.1157   1.0000   0
1550.890   0.5128   0.1197   1.0000   0
1550.927   0.4494   0.1130   1.0000   0
1550.963   0.4810   0.1170   1.0000   0
1551.000   0.4624   0.1152   1.0000   0
1551.037   0.6410   0.1314   1.0000   0
1551.074   0.7695   0.1419   1.0000   0
1551.110   0.6863   0.1353   1.0000   0
1551.147   0.7818   0.1428   1.0000   0
1551.184   0.8089   0.1450   1.0000   0
1551.220   0.8969   0.1516   1.0000   0
1551.257   0.9163   0.1528   1.0000   0
1551.294   0.9044   0.1521   1.0000   0
1551.331   0.8275   0.1464   1.0000   0
1551.367   0.9220   0.1532   1.0000   0
1551.404   0.8925   0.1511   1.0000   0
1551.441   1.0955   0.1651   1.0000   0
1551.478   0.9880   0.1582   1.0000   0
1551.514   1.0954   0.1650   1.0000   0
1551.551   1.0186   0.1598   1.0000   1
1551.588   0.9290   0.1536   1.0000   1
1551.624   1.0324   0.1612   1.0000   1
1551.661   1.0178   0.1599   1.0000   1
1551.698   1.1093   0.1662   1.0000   1
1551.735   1.1194   0.1670   1.0000   1
1551.771   0.9573   0.1560   1.0000   1
1551.808   0.9873   0.1582   1.0000   1
1551.845   0.9363   0.1546   1.0000   1
1551.882   1.0740   0.1639   1.0000   1
1551.918   1.0021   0.1592   1.0000   1
1551.955   0.9255   0.1539   1.0000   1
1551.992   1.0758   0.1641   1.0000   1
1552.028   0.9755   0.1565   1.0000   1
1552.065   1.1053   0.1661   1.0000   1
1552.102   0.9260   0.1539   1.0000   1
1552.139   0.8801   0.1503   1.0000   1
1552.175   1.1441   0.1685   1.0000   1
1552.212   1.0058   0.1593   1.0000   1
1552.249   0.8672   0.1495   1.0000   1
1552.286   1.0229   0.1606   1.0000   1
1552.322   0.9310   0.1542   1.0000   1
1552.359   1.0454   0.1622   1.0000   1
1552.396   0.9616   0.1560   1.0000   1
1552.433   0.9300   0.1538   1.0000   1
1552.469   1.1285   0.1675   1.0000   1
1552.506   1.0777   0.1638   1.0000   1
1552.543   0.9963   0.1585   1.0000   1
1552.579   0.8742   0.1502   1.0000   1
1552.616   1.0054   0.1595   1.0000   1
1552.653   1.0854   0.1648   1.0000   1
1552.690   1.0074   0.1595   1.0000   1
1552.726   1.0413   0.1610   1.0000   1
1552.763   0.9301   0.1541   1.0000   1
1552.800   0.9877   0.1581   1.0000   1
1552.837   0.9993   0.1588   1.0000   1
1552.873   0.9716   0.1571   1.0000   1
1552.910   0.8886   0.1504   1.0000   1
1552.947   1.1432   0.1684   1.0000   1
1552.983   1.0865   0.1650   1.0000   1
1553.020   1.1116   0.1662   1.0000   1
1553.057   1.1846   0.1713   1.0000   1
1553.094   0.9592   0.1563   1.0000   1
1553.130   0.9592   0.1563   1.0000   1
1553.167   1.0883   0.1652   1.0000   1
1553.204   1.1158   0.1669   1.0000   1
1553.241   0.8810   0.1507   1.0000   1
1553.277   0.9197   0.1536   1.0000   1
1553.314   1.0128   0.1611   1.0000   1
1553.351   0.9391   0.1588   1.0000   1
