# Best-fit normalized data and profile from VoigtFit
# column 1 : Wavelength
# column 2 : Normalized flux
# column 3 : Normalized error
# column 4 : Best-fit profile
# column 5 : Pixel mask, 1=included, 0=excluded
1544.572   0.9891   0.1563   1.0000   1
1544.609   1.0493   0.1598   1.0000   1
1544.646   1.0136   0.1579   1.0000   1
1544.683   1.0224   0.1585   1.0000   1
1544.719   0.9203   0.1512   1.0000   1
1544.756   1.0458   0.1603   1.0000   1
1544.793   0.9051   0.1502   1.0000   1
1544.830   1.0232   0.1580   1.0000   1
1544.866   1.0826   0.1620   1.0000   1
1544.903   0.9809   0.1559   1.0000   1
1544.940   1.0980   0.1636   1.0000   1
1544.976   0.9739   0.1554   1.0000   1
1545.013   1.0656   0.1615   1.0000   1
1545.050   1.0309   0.1592   1.0000   1
1545.087   1.0087   0.1573   1.0000   1
1545.123   0.9791   0.1555   1.0000   1
1545.160   1.0491   0.1606   1.0000   1
1545.197   0.9675   0.1551   1.0000   1
1545.234   0.9895   0.1564   1.0000   1
1545.270   0.9859   0.1560   1.0000   1
1545.307   1.0945   0.1637   1.0000   1
1545.344   0.9961   0.1571   1.0000   1
1545.380   0.8497   0.1466   1.0000   1
1545.417   0.9865   0.1565   1.0000   1
1545.454   1.0510   0.1607   1.0000   1
1545.491   1.0924   0.1635   1.0000   1
1545.527   1.0294   0.1593   1.0000   1
1545.564   0.8481   0.1467   1.0000   1
1545.601   0.9733   0.1556   1.0000   1
1545.638   0.9207   0.1513   1.0000   1
1545.674   0.9785   0.1561   1.0000   1
1545.711   1.1215   0.1656   1.0000   1
1545.748   0.9137   0.1508   1.0000   1
1545.784   0.9862   0.1560   1.0000   1
1545.821   1.0550   0.1611   1.0000   1
1545.858   1.2105   0.1713   1.0000   1
1545.895   0.9785   0.1561   1.0000   1
1545.931   1.1122   0.1651   1.0000   1
1545.968   0.9531   0.1543   1.0000   1
1546.005   0.9965   0.1566   1.0000   1
1546.042   0.9154   0.1517   1.0000   1
1546.078   1.0135   0.1587   1.0000   1
1546.115   0.9018   0.1509   1.0000   1
1546.152   0.9593   0.1547   1.0000   1
1546.189   0.9932   0.1574   1.0000   0
1546.225   0.9862   0.1564   1.0000   0
1546.262   0.9353   0.1533   1.0000   0
1546.299   0.8104   0.1441   1.0000   0
1546.335   0.8714   0.1483   1.0000   0
1546.372   0.6675   0.1326   1.0000   0
1546.409   0.6608   0.1324   1.0000   0
1546.446   0.6826   0.1341   1.0000   0
1546.482   0.6955   0.1353   1.0000   0
1546.519   0.5889   0.1263   1.0000   0
1546.556   0.4028   0.1080   1.0000   0
1546.593   0.5160   0.1196   1.0000   0
1546.629   0.4798   0.1153   1.0000   0
1546.666   0.6219   0.1292   1.0000   0
1546.703   0.7361   0.1381   1.0000   0
1546.739   0.6556   0.1321   1.0000   0
1546.776   0.7185   0.1373   1.0000   0
1546.813   0.8197   0.1450   1.0000   0
1546.850   0.8357   0.1463   1.0000   0
1546.886   0.6760   0.1337   1.0000   0
1546.923   0.8456   0.1471   1.0000   0
1546.960   0.8968   0.1508   1.0000   0
1546.997   0.9546   0.1548   1.0000   0
1547.033   0.8479   0.1468   1.0000   0
1547.070   1.0320   0.1602   1.0000   0
1547.107   1.0895   0.1641   1.0000   0
1547.143   1.2437   0.1737   1.0000   0
1547.180   0.9823   0.1566   1.0000   0
1547.217   1.1960   0.1709   1.0000   0
1547.254   0.9381   0.1539   1.0000   1
1547.290   0.9191   0.1526   1.0000   1
1547.327   0.9419   0.1541   1.0000   1
1547.364   0.9983   0.1580   1.0000   1
1547.401   1.0643   0.1626   1.0000   1
1547.437   0.9382   0.1541   1.0000   1
1547.474   0.9169   0.1522   1.0000   1
1547.511   1.0612   0.1625   1.0000   1
1547.548   1.0583   0.1622   1.0000   1
1547.584   0.8087   0.1445   1.0000   1
1547.621   1.0407   0.1611   1.0000   1
1547.658   0.9585   0.1554   1.0000   1
1547.694   0.9782   0.1566   1.0000   1
1547.731   0.9357   0.1541   1.0000   0
1547.768   0.7843   0.1428   1.0000   0
1547.805   0.8079   0.1445   1.0000   0
1547.841   0.7456   0.1396   1.0000   0
1547.878   0.7478   0.1400   1.0000   0
1547.915   0.8313   0.1465   1.0000   0
1547.952   0.6544   0.1323   1.0000   0
1547.988   0.5309   0.1213   1.0000   0
1548.025   0.5230   0.1207   1.0000   0
1548.062   0.3842   0.1062   1.0000   0
1548.098   0.2764   0.0937   1.0000   0
1548.135   0.3009   0.0972   1.0000   0
1548.172   0.2486   0.0903   1.0000   0
1548.209   0.3025   0.0972   1.0000   0
1548.245   0.1696   0.0777   1.0000   0
1548.282   0.1740   0.0796   1.0000   0
1548.319   0.2066   0.0845   1.0000   0
1548.356   0.1966   0.0829   1.0000   0
1548.392   0.2273   0.0877   1.0000   0
1548.429   0.2548   0.0910   1.0000   0
1548.466   0.2836   0.0949   1.0000   0
1548.502   0.3594   0.1042   1.0000   0
1548.539   0.4434   0.1127   1.0000   0
1548.576   0.5483   0.1232   1.0000   0
1548.613   0.7982   0.1441   1.0000   0
1548.649   0.6395   0.1314   1.0000   0
1548.686   0.7817   0.1427   0.9998   0
1548.723   0.8157   0.1455   0.9987   0
1548.760   0.7448   0.1394   0.9931   0
1548.796   0.9116   0.1525   0.9744   1
1548.833   0.9887   0.1581   0.9312   1
1548.870   0.8353   0.1469   0.8627   1
1548.907   0.8068   0.1449   0.7961   1
1548.943   0.7821   0.1428   0.7634   1
1548.980   0.7310   0.1390   0.7689   1
1549.017   0.7846   0.1432   0.7773   1
1549.053   0.8188   0.1459   0.7595   1
1549.090   0.6835   0.1351   0.7166   1
1549.127   0.6179   0.1297   0.6735   1
1549.164   0.7197   0.1379   0.6506   1
1549.200   0.6948   0.1361   0.6591   1
1549.237   0.6244   0.1293   0.6975   1
1549.274   0.8281   0.1465   0.7570   1
1549.311   0.7574   0.1411   0.8251   1
1549.347   0.9461   0.1551   0.8876   1
1549.384   0.9429   0.1550   0.9361   1
1549.421   0.9551   0.1555   0.9678   1
1549.457   0.9353   0.1546   0.9855   1
1549.494   1.0488   0.1621   0.9943   1
1549.531   1.0593   0.1623   0.9980   1
1549.568   1.0634   0.1633   0.9993   1
1549.604   1.0493   0.1625   0.9998   1
1549.641   0.9139   0.1531   1.0000   1
1549.678   0.8964   0.1519   1.0000   1
1549.715   0.8904   0.1515   1.0000   1
1549.751   1.0476   0.1632   1.0000   1
1549.788   1.0063   0.1626   1.0000   1
1549.825   0.9459   0.1608   1.0000   1
1549.861   0.9912   0.1639   1.0000   1
1549.898   1.0832   0.1705   1.0000   1
1549.935   1.0338   0.1665   0.9999   1
1549.972   1.0134   0.1643   0.9999   1
1550.008   0.8871   0.1552   0.9997   1
1550.045   1.1103   0.1719   0.9994   1
1550.082   1.0866   0.1715   0.9989   1
1550.119   1.1724   0.1769   0.9979   1
1550.155   0.9941   0.1652   0.9962   1
1550.192   0.9538   0.1622   0.9933   1
1550.229   0.9106   0.1579   0.9887   1
1550.265   1.1229   0.1730   0.9813   1
1550.302   0.9293   0.1571   0.9703   1
1550.339   1.1684   0.1716   0.9544   1
1550.376   0.9682   0.1572   0.9322   1
1550.412   0.9039   0.1525   0.9029   1
1550.449   0.9245   0.1539   0.8660   1
1550.486   0.7430   0.1404   0.8213   1
1550.523   0.7754   0.1431   0.7704   1
1550.559   0.6790   0.1352   0.7154   1
1550.596   0.6466   0.1326   0.6589   1
1550.633   0.6345   0.1316   0.6044   1
1550.670   0.5118   0.1203   0.5546   1
1550.706   0.5248   0.1216   0.5126   1
1550.743   0.4343   0.1120   0.4798   1
1550.780   0.5117   0.1206   0.4575   1
1550.816   0.4665   0.1155   0.4468   1
1550.853   0.4731   0.1168   0.4475   1
1550.890   0.5180   0.1209   0.4595   1
1550.927   0.4541   0.1141   0.4831   1
1550.963   0.4860   0.1182   0.5171   1
1551.000   0.4673   0.1164   0.5602   1
1551.037   0.6478   0.1328   0.6107   1
1551.074   0.7778   0.1434   0.6656   1
1551.110   0.6938   0.1368   0.7220   1
1551.147   0.7903   0.1443   0.7768   1
1551.184   0.8178   0.1466   0.8270   1
1551.220   0.9069   0.1532   0.8707   1
1551.257   0.9265   0.1545   0.9069   1
1551.294   0.9146   0.1538   0.9352   1
1551.331   0.8369   0.1481   0.9565   1
1551.367   0.9325   0.1550   0.9719   1
1551.404   0.9028   0.1529   0.9824   1
1551.441   1.1082   0.1671   0.9893   1
1551.478   0.9995   0.1600   0.9938   1
1551.514   1.1083   0.1670   0.9964   1
1551.551   1.0306   0.1616   0.9980   1
1551.588   0.9401   0.1554   0.9990   1
1551.624   1.0449   0.1632   0.9995   1
1551.661   1.0302   0.1619   0.9997   1
1551.698   1.1229   0.1682   0.9999   1
1551.735   1.1332   0.1690   0.9999   1
1551.771   0.9691   0.1580   1.0000   1
1551.808   0.9997   0.1602   1.0000   1
1551.845   0.9481   0.1565   1.0000   1
1551.882   1.0876   0.1660   1.0000   1
1551.918   1.0148   0.1612   1.0000   1
1551.955   0.9374   0.1558   1.0000   1
1551.992   1.0897   0.1663   1.0000   1
1552.028   0.9881   0.1586   1.0000   1
1552.065   1.1197   0.1682   1.0000   1
1552.102   0.9382   0.1559   1.0000   1
1552.139   0.8918   0.1523   1.0000   1
1552.175   1.1594   0.1707   1.0000   1
1552.212   1.0193   0.1614   1.0000   1
1552.249   0.8790   0.1515   1.0000   1
1552.286   1.0368   0.1628   1.0000   1
1552.322   0.9437   0.1563   1.0000   1
1552.359   1.0598   0.1644   1.0000   1
1552.396   0.9750   0.1582   1.0000   1
1552.433   0.9429   0.1559   1.0000   1
1552.469   1.1444   0.1699   1.0000   1
1552.506   1.0929   0.1661   1.0000   1
1552.543   1.0104   0.1607   1.0000   1
1552.579   0.8867   0.1523   1.0000   1
1552.616   1.0198   0.1618   1.0000   1
1552.653   1.1011   0.1672   1.0000   1
1552.690   1.0221   0.1618   1.0000   1
1552.726   1.0565   0.1634   1.0000   1
1552.763   0.9438   0.1564   1.0000   1
1552.800   1.0023   0.1605   1.0000   1
1552.837   1.0142   0.1612   1.0000   1
1552.873   0.9862   0.1595   1.0000   1
1552.910   0.9020   0.1526   1.0000   1
1552.947   1.1606   0.1709   1.0000   1
1552.983   1.1030   0.1675   1.0000   1
1553.020   1.1286   0.1687   1.0000   1
1553.057   1.2028   0.1740   1.0000   1
1553.094   0.9741   0.1587   1.0000   1
1553.130   0.9742   0.1588   1.0000   1
1553.167   1.1053   0.1678   1.0000   1
1553.204   1.1334   0.1695   1.0000   1
1553.241   0.8949   0.1531   1.0000   1
1553.277   0.9344   0.1561   1.0000   1
1553.314   1.0290   0.1637   1.0000   1
1553.351   0.9543   0.1613   1.0000   1
1553.387   0.9695   0.1650   1.0000   1
1553.424   0.9719   0.1651   1.0000   1
1553.461   0.8116   0.1517   1.0000   1
1553.498   0.9049   0.1582   1.0000   1
1553.534   0.8695   0.1553   1.0000   1
1553.571   0.9280   0.1606   1.0000   1
1553.608   1.0601   0.1706   1.0000   1
1553.645   1.0077   0.1659   1.0000   1
1553.681   1.0681   0.1724   1.0000   1
1553.718   1.0099   0.1671   1.0000   1
1553.755   1.1382   0.1786   1.0000   1
1553.792   0.9317   0.1623   1.0000   1
1553.828   1.0723   0.1716   1.0000   1
1553.865   1.0700   0.1680   1.0000   1
1553.902   1.0006   0.1609   1.0000   1
1553.938   1.0465   0.1641   1.0000   1
1553.975   1.0352   0.1634   1.0000   1
1554.012   0.8489   0.1498   1.0000   1
1554.049   0.9850   0.1598   1.0000   1
1554.085   1.0287   0.1631   1.0000   1
1554.122   0.9904   0.1603   1.0000   1
1554.159   1.0160   0.1622   1.0000   1
1554.196   1.1556   0.1716   1.0000   1
1554.232   1.0220   0.1625   1.0000   1
1554.269   1.0013   0.1612   1.0000   1
1554.306   1.0173   0.1622   1.0000   1
1554.342   1.1000   0.1677   1.0000   1
1554.379   1.0621   0.1654   1.0000   1
1554.416   1.0786   0.1665   1.0000   1
1554.453   1.0940   0.1674   1.0000   1
1554.489   1.0767   0.1664   1.0000   1
1554.526   0.9717   0.1590   1.0000   1
1554.563   1.0895   0.1672   1.0000   1
1554.600   1.0560   0.1650   1.0000   1
1554.636   1.0205   0.1619   1.0000   1
1554.673   1.0317   0.1633   1.0000   1
1554.710   0.9896   0.1606   1.0000   1
1554.746   0.9550   0.1574   1.0000   1
1554.783   0.9482   0.1575   1.0000   1
1554.820   0.9501   0.1574   1.0000   1
1554.857   0.9595   0.1582   1.0000   1
1554.893   1.0250   0.1627   1.0000   1
1554.930   0.9662   0.1588   1.0000   1
1554.967   1.1824   0.1732   1.0000   1
1555.004   1.1472   0.1712   1.0000   1
1555.040   1.0819   0.1665   1.0000   1
1555.077   1.2811   0.1796   1.0000   1
1555.114   0.8823   0.1528   1.0000   1
1555.150   0.9759   0.1592   1.0000   1
1555.187   1.1310   0.1703   1.0000   1
1555.224   1.0618   0.1654   1.0000   1
1555.261   1.0260   0.1633   1.0000   1
1555.297   0.8419   0.1492   1.0000   1
1555.334   1.0181   0.1623   1.0000   1
1555.371   1.0155   0.1626   1.0000   1
1555.408   1.0796   0.1668   1.0000   1
1555.444   1.0479   0.1648   1.0000   1
1555.481   1.0614   0.1655   1.0000   1
1555.518   1.0141   0.1621   1.0000   1
1555.555   0.9647   0.1589   1.0000   1
1555.591   0.8714   0.1522   1.0000   1
1555.628   0.9002   0.1545   1.0000   1
1555.665   0.9662   0.1586   1.0000   1
1555.701   0.8371   0.1494   1.0000   1
1555.738   1.1155   0.1690   1.0000   1
1555.775   0.9777   0.1600   1.0000   1
1555.812   0.8820   0.1531   1.0000   1
1555.848   0.9771   0.1595   1.0000   1
1555.885   0.9849   0.1605   1.0000   1
1555.922   0.9405   0.1573   1.0000   1
1555.959   1.0020   0.1616   1.0000   1
1555.995   0.8951   0.1536   1.0000   1
1556.032   0.9874   0.1608   1.0000   1
1556.069   1.0944   0.1679   1.0000   1
1556.105   0.9279   0.1565   1.0000   1
1556.142   0.9358   0.1572   1.0000   1
1556.179   1.0996   0.1683   1.0000   1
1556.216   0.9325   0.1569   1.0000   1
1556.252   0.8909   0.1541   1.0000   1
1556.289   0.9101   0.1554   1.0000   1
1556.326   0.8909   0.1537   1.0000   1
1556.363   0.9315   0.1569   1.0000   1
1556.399   1.0627   0.1661   1.0000   1
1556.436   1.0288   0.1635   1.0000   1
1556.473   0.9486   0.1582   1.0000   1
1556.509   0.9997   0.1616   1.0000   1
1556.546   0.9259   0.1563   1.0000   1
1556.583   1.0317   0.1640   1.0000   1
1556.620   0.8571   0.1511   1.0000   1
1556.656   1.0281   0.1636   1.0000   1
1556.693   1.0231   0.1634   1.0000   1
1556.730   0.9499   0.1583   1.0000   1
1556.767   0.9607   0.1591   1.0000   1
1556.803   1.2757   0.1801   1.0000   1
1556.840   1.0815   0.1673   1.0000   1
1556.877   1.0633   0.1663   1.0000   1
1556.914   0.9751   0.1603   1.0000   1
1556.950   0.8357   0.1498   1.0000   1
