# Best-fit normalized data and profile from VoigtFit
# column 1 : Wavelength
# column 2 : Normalized flux
# column 3 : Normalized error
# column 4 : Best-fit profile
# column 5 : Pixel mask, 1=included, 0=excluded
1202.504   0.8547   0.1061   1.0000   0
1202.534   0.9160   0.1102   1.0000   0
1202.564   0.7796   0.1029   1.0000   0
1202.594   0.7636   0.1025   1.0000   0
1202.623   0.8012   0.1046   1.0000   0
1202.653   0.8230   0.1062   1.0000   0
1202.683   0.8460   0.1082   1.0000   0
1202.713   0.7782   0.1033   1.0000   0
1202.743   0.8436   0.1058   1.0000   0
1202.773   0.8432   0.1073   1.0000   0
1202.803   0.9395   0.1132   1.0000   0
1202.833   1.0485   0.1188   1.0000   0
1202.862   0.9053   0.1115   1.0000   1
1202.892   0.9504   0.1137   1.0000   1
1202.922   0.9705   0.1156   1.0000   1
1202.952   1.0295   0.1189   1.0000   1
1202.982   0.9874   0.1160   1.0000   1
1203.012   0.9059   0.1106   1.0000   1
1203.042   0.9746   0.1143   1.0000   1
1203.072   1.0058   0.1158   1.0000   1
1203.102   0.8794   0.1060   1.0000   1
1203.131   1.0032   0.1157   1.0000   1
1203.161   0.9419   0.1120   1.0000   1
1203.191   1.0097   0.1147   1.0000   1
1203.221   0.9845   0.1130   1.0000   1
1203.251   0.9945   0.1149   1.0000   1
1203.281   0.9936   0.1149   1.0000   1
1203.311   0.9380   0.1105   1.0000   1
1203.341   0.9277   0.1115   1.0000   1
1203.370   0.9917   0.1154   1.0000   1
1203.400   1.0453   0.1186   1.0000   1
1203.430   1.0562   0.1203   1.0000   1
1203.460   1.0809   0.1217   1.0000   1
1203.490   1.0162   0.1179   1.0000   1
1203.520   0.9758   0.1156   1.0000   1
1203.550   0.9058   0.1114   1.0000   1
1203.580   0.9670   0.1154   1.0000   1
1203.609   0.9791   0.1165   1.0000   1
1203.639   0.9266   0.1132   1.0000   1
1203.669   1.0391   0.1196   1.0000   1
1203.699   1.0570   0.1188   1.0000   1
1203.729   0.8824   0.1117   1.0000   1
1203.759   0.9512   0.1155   1.0000   1
1203.789   0.9689   0.1162   1.0000   1
1203.819   0.9377   0.1143   1.0000   1
1203.848   0.9757   0.1157   1.0000   1
1203.878   0.9835   0.1154   1.0000   1
1203.908   0.9682   0.1148   1.0000   1
1203.938   0.9765   0.1145   1.0000   1
1203.968   1.1444   0.1244   1.0000   1
1203.998   1.1049   0.1200   1.0000   1
1204.028   1.0049   0.1172   1.0000   1
1204.058   1.0627   0.1206   1.0000   1
1204.087   0.9440   0.1137   1.0000   1
1204.117   1.0256   0.1181   1.0000   1
1204.147   1.0585   0.1201   1.0000   1
1204.177   1.0550   0.1199   1.0000   1
1204.207   0.9896   0.1170   1.0000   1
1204.237   0.9425   0.1134   1.0000   1
1204.267   0.9807   0.1146   1.0000   1
1204.297   1.0593   0.1205   1.0000   1
1204.326   1.1300   0.1241   0.9999   1
1204.356   1.1083   0.1228   0.9999   1
1204.386   1.0081   0.1179   0.9999   1
1204.416   0.9182   0.1129   0.9999   1
1204.446   1.1385   0.1262   0.9999   1
1204.476   0.9847   0.1182   0.9998   1
1204.506   0.9611   0.1166   0.9995   1
1204.536   1.0461   0.1214   0.9987   1
1204.565   1.0731   0.1243   0.9968   1
1204.595   0.9961   0.1199   0.9925   1
1204.625   0.9460   0.1168   0.9836   1
1204.655   0.8776   0.1087   0.9667   1
1204.685   0.9708   0.1175   0.9375   1
1204.715   0.8949   0.1140   0.8928   1
1204.745   0.8513   0.1109   0.8321   1
1204.775   0.7839   0.1069   0.7589   1
1204.804   0.6761   0.0994   0.6811   1
1204.834   0.5522   0.0922   0.6097   1
1204.864   0.5702   0.0930   0.5550   1
1204.894   0.5691   0.0924   0.5239   1
1204.924   0.5605   0.0921   0.5194   1
1204.954   0.5215   0.0884   0.5396   1
1204.984   0.4867   0.0872   0.5749   1
1205.014   0.6095   0.0939   0.6042   1
1205.043   0.6673   0.0994   0.6007   1
1205.073   0.6068   0.0954   0.5466   1
1205.103   0.4215   0.0814   0.4509   1
1205.133   0.3364   0.0707   0.3489   1
1205.163   0.2563   0.0664   0.2796   1
1205.193   0.2489   0.0650   0.2645   1
1205.223   0.3870   0.0788   0.3103   1
1205.253   0.4352   0.0838   0.4123   1
1205.282   0.4897   0.0863   0.5490   1
1205.312   0.6941   0.1020   0.6794   1
1205.342   0.7679   0.1069   0.7685   1
1205.372   0.7503   0.1041   0.8063   1
1205.402   0.8205   0.1104   0.8053   1
1205.432   0.8311   0.1105   0.7856   1
1205.462   0.7093   0.1036   0.7635   1
1205.492   0.8122   0.1096   0.7481   1
1205.521   0.7821   0.1090   0.7435   1
1205.551   0.7729   0.1089   0.7509   1
1205.581   0.7240   0.1062   0.7695   1
1205.611   0.7489   0.1076   0.7974   1
1205.641   0.8527   0.1139   0.8310   1
1205.671   0.8306   0.1105   0.8664   1
1205.701   0.8880   0.1154   0.9001   1
1205.731   0.9223   0.1170   0.9295   1
1205.760   0.9815   0.1217   0.9529   1
1205.790   1.0951   0.1275   0.9701   1
1205.820   0.9791   0.1216   0.9817   1
1205.850   1.0980   0.1276   0.9886   1
1205.880   1.0298   0.1239   0.9917   1
1205.910   0.9609   0.1204   0.9909   1
1205.940   0.9502   0.1196   0.9859   1
1205.970   1.0072   0.1231   0.9747   1
1205.999   0.9085   0.1163   0.9540   1
1206.029   0.9366   0.1177   0.9191   1
1206.059   0.8553   0.1129   0.8639   1
1206.089   0.7944   0.1099   0.7831   1
1206.119   0.7125   0.1033   0.6754   1
1206.149   0.5427   0.0917   0.5459   1
1206.179   0.3456   0.0747   0.4065   1
1206.209   0.2807   0.0675   0.2750   1
1206.238   0.1600   0.0550   0.1674   1
1206.268   0.0828   0.0435   0.0912   1
1206.298   0.0815   0.0443   0.0444   1
1206.328   0.0456   0.0384   0.0196   1
1206.358   0.0490   0.0377   0.0079   1
1206.388   0.0305   0.0336   0.0032   1
1206.418   0.0130   0.0299   0.0014   1
1206.448   0.0140   0.0295   0.0007   1
1206.477   0.0242   0.0314   0.0005   1
1206.507   0.0203   0.0323   0.0005   1
1206.537   0.0218   0.0322   0.0007   1
1206.567   0.0175   0.0319   0.0013   1
1206.597   0.0449   0.0378   0.0032   1
1206.627   0.0482   0.0400   0.0079   1
1206.657   0.0554   0.0405   0.0190   1
1206.687   0.0760   0.0442   0.0431   1
1206.716   0.1029   0.0484   0.0894   1
1206.746   0.1033   0.0455   0.1651   1
1206.776   0.1943   0.0609   0.2720   1
1206.806   0.3787   0.0815   0.4027   1
1206.836   0.6763   0.1035   0.5423   1
1206.866   0.8114   0.1123   0.6722   1
1206.896   0.8306   0.1108   0.7803   1
1206.926   0.9267   0.1203   0.8616   1
1206.955   0.9376   0.1207   0.9178   1
1206.985   0.9973   0.1236   0.9537   1
1207.015   1.0277   0.1257   0.9749   1
1207.045   1.0313   0.1260   0.9869   1
1207.075   1.0206   0.1255   0.9934   1
1207.105   1.1411   0.1323   0.9967   1
1207.135   1.0291   0.1260   0.9984   1
1207.165   0.9725   0.1225   0.9992   1
1207.194   1.0892   0.1300   0.9995   1
1207.224   1.0596   0.1281   0.9997   1
1207.254   1.1253   0.1321   0.9998   1
1207.284   1.0188   0.1264   0.9998   1
1207.314   0.9222   0.1206   0.9998   1
1207.344   1.0222   0.1255   0.9998   1
1207.374   0.9854   0.1241   0.9999   1
1207.404   0.9800   0.1247   0.9999   1
1207.433   1.0546   0.1285   0.9999   1
1207.463   0.9417   0.1213   0.9999   1
1207.493   0.8960   0.1196   0.9999   1
1207.523   0.8603   0.1173   0.9999   1
1207.553   0.9810   0.1247   0.9999   1
1207.583   0.9548   0.1229   0.9999   1
1207.613   0.9979   0.1247   0.9999   1
1207.643   1.0008   0.1251   0.9999   1
1207.672   0.9097   0.1208   0.9999   1
1207.702   0.9836   0.1252   0.9999   1
1207.732   1.1455   0.1335   0.9999   1
1207.762   1.0808   0.1307   0.9999   1
1207.792   0.9866   0.1253   0.9999   1
1207.822   1.0516   0.1295   0.9999   1
1207.852   1.0237   0.1276   0.9999   1
1207.882   0.9937   0.1259   0.9999   1
1207.911   0.9197   0.1217   0.9999   1
1207.941   1.0847   0.1316   1.0000   1
1207.971   1.0831   0.1315   1.0000   1
1208.001   1.0217   0.1284   1.0000   1
1208.031   1.0144   0.1275   1.0000   1
1208.061   1.0043   0.1273   1.0000   1
1208.091   1.0820   0.1323   1.0000   1
1208.121   0.9294   0.1232   1.0000   1
1208.150   0.9975   0.1272   1.0000   1
1208.180   1.1071   0.1326   1.0000   1
1208.210   1.0940   0.1322   1.0000   1
1208.240   1.1368   0.1355   1.0000   1
1208.270   1.1505   0.1363   1.0000   1
1208.300   1.0718   0.1321   1.0000   1
1208.330   1.0445   0.1299   1.0000   1
1208.360   1.0527   0.1302   1.0000   1
1208.389   1.0870   0.1329   1.0000   1
1208.419   1.1010   0.1311   1.0000   1
1208.449   0.9723   0.1274   1.0000   1
1208.479   1.0751   0.1327   1.0000   1
1208.509   1.0210   0.1280   1.0000   1
1208.539   0.9547   0.1257   1.0000   1
1208.569   1.1601   0.1368   1.0000   1
1208.599   1.0145   0.1296   1.0000   1
1208.628   0.9666   0.1243   1.0000   1
1208.658   1.0515   0.1314   1.0000   1
1208.688   1.0975   0.1346   1.0000   1
1208.718   0.9863   0.1279   1.0000   1
1208.748   1.1236   0.1362   1.0000   1
1208.778   0.9338   0.1246   1.0000   1
1208.808   1.0284   0.1315   1.0000   1
1208.838   0.9912   0.1277   1.0000   1
1208.867   1.0023   0.1303   1.0000   1
1208.897   1.0522   0.1314   1.0000   0
1208.927   1.0284   0.1315   1.0000   0
1208.957   1.0157   0.1297   1.0000   0
1208.987   1.0409   0.1326   1.0000   0
1209.017   0.8642   0.1206   1.0000   0
1209.047   0.9062   0.1237   1.0000   0
1209.077   0.8983   0.1237   1.0000   0
1209.106   0.9118   0.1258   1.0000   0
1209.136   0.9024   0.1242   1.0000   0
1209.166   0.7988   0.1185   1.0000   0
1209.196   0.9778   0.1293   1.0000   0
1209.226   1.0117   0.1299   1.0000   0
1209.256   0.9432   0.1270   1.0000   0
1209.286   1.0512   0.1341   1.0000   0
1209.315   0.8988   0.1236   1.0000   0
1209.345   0.9064   0.1254   1.0000   0
1209.375   0.8613   0.1233   1.0000   0
1209.405   0.8461   0.1211   1.0000   0
1209.435   0.7347   0.1127   1.0000   0
1209.465   0.6830   0.1109   1.0000   0
1209.495   0.7150   0.1125   1.0000   0
1209.525   0.6406   0.1061   1.0000   0
1209.554   0.7488   0.1155   1.0000   0
1209.584   0.7747   0.1188   1.0000   0
1209.614   0.8170   0.1212   1.0000   0
1209.644   0.9607   0.1293   1.0000   0
1209.674   0.9272   0.1275   1.0000   0
1209.704   0.9687   0.1303   1.0000   0
1209.734   0.9197   0.1253   1.0000   0
1209.764   1.1046   0.1357   1.0000   0
1209.793   0.9417   0.1286   1.0000   1
1209.823   1.0754   0.1368   1.0000   1
1209.853   0.9677   0.1301   1.0000   1
1209.883   0.9565   0.1284   1.0000   1
1209.913   0.8840   0.1258   1.0000   1
1209.943   0.9735   0.1320   1.0000   1
1209.973   0.9432   0.1296   1.0000   1
1210.003   0.8918   0.1260   1.0000   1
1210.032   0.8095   0.1178   1.0000   1
1210.062   0.9910   0.1329   1.0000   1
1210.092   0.9378   0.1296   1.0000   1
1210.122   0.9520   0.1296   1.0000   1
1210.152   1.0418   0.1362   1.0000   1
1210.182   1.0747   0.1386   1.0000   1
1210.212   0.9818   0.1332   1.0000   1
1210.242   0.9566   0.1315   1.0000   1
1210.271   0.9272   0.1291   1.0000   1
1210.301   1.0067   0.1347   1.0000   1
1210.331   0.9054   0.1281   1.0000   1
1210.361   0.8715   0.1250   1.0000   1
1210.391   0.9226   0.1299   1.0000   1
1210.421   1.0722   0.1383   1.0000   1
1210.451   0.8978   0.1280   1.0000   1
1210.481   0.9281   0.1301   1.0000   1
1210.510   0.9206   0.1290   1.0000   1
