# Best-fit normalized data and profile from VoigtFit
# column 1 : Wavelength
# column 2 : Normalized flux
# column 3 : Normalized error
# column 4 : Best-fit profile
# column 5 : Pixel mask, 1=included, 0=excluded
1203.497   0.5027   0.5438   0.9999   1
1203.527   1.2035   0.7074   0.9999   1
1203.556   1.2129   0.7138   0.9999   1
1203.586   0.6886   0.5632   0.9999   1
1203.616   0.8136   0.6303   0.9999   1
1203.646   0.9939   0.6415   0.9999   1
1203.676   1.1461   0.6865   0.9999   1
1203.706   1.5835   0.7804   0.9999   1
1203.736   0.9724   0.6228   0.9999   1
1203.766   1.3163   0.7057   0.9999   1
1203.795   1.7099   0.8024   0.9999   1
1203.825   0.9094   0.6559   0.9999   1
1203.855   1.0319   0.6551   0.9999   1
1203.885   1.0341   0.6629   0.9999   1
1203.915   0.7962   0.6364   0.9999   1
1203.945   1.0147   0.6887   0.9999   1
1203.975   0.9492   0.6534   0.9999   1
1204.005   1.3045   0.7291   0.9999   1
1204.034   1.6433   0.7884   0.9999   1
1204.064   0.8791   0.5989   0.9999   1
1204.094   0.9209   0.6647   0.9999   1
1204.124   1.0268   0.6661   0.9999   1
1204.154   1.1704   0.7098   0.9999   1
1204.184   0.7135   0.6244   0.9999   1
1204.214   0.8175   0.6426   0.9999   1
1204.244   0.9652   0.6608   0.9999   1
1204.273   0.8276   0.5902   0.9999   1
1204.303   0.9973   0.6828   0.9999   1
1204.333   0.9714   0.6850   0.9999   1
1204.363   0.8248   0.6591   0.9999   1
1204.393   0.9481   0.6820   0.9999   1
1204.423   1.3276   0.7429   0.9999   1
1204.453   1.1019   0.7051   0.9999   1
1204.483   1.0610   0.7170   0.9999   1
1204.512   1.1829   0.7126   0.9999   1
1204.542   0.5995   0.6010   0.9999   1
1204.572   1.2151   0.7435   0.9999   1
1204.602   0.9897   0.6751   0.9999   1
1204.632   1.2227   0.7249   0.9999   1
1204.662   1.1226   0.7348   0.9998   1
1204.692   0.6182   0.6084   0.9998   1
1204.721   0.9453   0.6970   0.9998   1
1204.751   1.3720   0.7571   0.9998   1
1204.781   1.0600   0.7130   0.9998   1
1204.811   1.2825   0.7368   0.9998   1
1204.841   0.5952   0.5936   0.9998   1
1204.871   1.1408   0.7354   0.9998   1
1204.901   0.6047   0.5609   0.9998   1
1204.931   0.8629   0.6840   0.9998   1
1204.960   0.8068   0.6554   0.9998   1
1204.990   0.9411   0.7010   0.9998   1
1205.020   1.0829   0.7328   0.9998   1
1205.050   1.0916   0.7057   0.9998   1
1205.080   1.2539   0.7634   0.9998   1
1205.110   1.5264   0.8089   0.9998   1
1205.140   1.0998   0.7120   0.9998   1
1205.170   1.3480   0.7820   0.9997   1
1205.199   1.2480   0.7656   0.9997   1
1205.229   0.9007   0.7035   0.9997   1
1205.259   1.5454   0.8213   0.9997   1
1205.289   1.3960   0.7725   0.9997   1
1205.319   0.7782   0.6607   0.9997   1
1205.349   1.2177   0.7505   0.9997   1
1205.379   0.5632   0.5784   0.9997   1
1205.409   1.0306   0.6836   0.9997   1
1205.438   1.4474   0.7838   0.9996   1
1205.468   1.0828   0.6988   0.9996   1
1205.498   1.0901   0.7343   0.9996   1
1205.528   0.7844   0.6763   0.9996   1
1205.558   0.7717   0.6657   0.9996   1
1205.588   0.4573   0.5983   0.9995   1
1205.618   0.8915   0.6997   0.9995   1
1205.648   1.1420   0.7437   0.9995   1
1205.677   1.2982   0.7691   0.9994   1
1205.707   1.0909   0.7472   0.9993   1
1205.737   1.0361   0.7686   0.9992   1
1205.767   1.1824   0.7918   0.9989   1
1205.797   1.2890   0.8052   0.9984   1
1205.827   1.3615   0.8187   0.9977   1
1205.857   0.9797   0.7130   0.9964   1
1205.887   1.1538   0.7919   0.9944   1
1205.916   0.6557   0.6632   0.9912   1
1205.946   1.3895   0.8090   0.9861   1
1205.976   0.6647   0.6571   0.9784   1
1206.006   0.8238   0.6948   0.9670   1
1206.036   1.0543   0.7401   0.9506   1
1206.066   0.5844   0.6510   0.9276   1
1206.096   1.1075   0.7825   0.8965   1
1206.126   0.9757   0.7227   0.8561   1
1206.155   0.9466   0.7219   0.8053   1
1206.185   0.5289   0.6267   0.7442   1
1206.215   0.8549   0.6794   0.6738   1
1206.245   0.4093   0.5896   0.5967   1
1206.275   0.6467   0.6604   0.5161   1
1206.305   0.6500   0.6251   0.4362   1
1206.335   0.3039   0.5259   0.3608   1
1206.364   0.2943   0.5635   0.2932   1
1206.394   0.1877   0.5329   0.2355   1
1206.424   0.3443   0.5472   0.1882   1
1206.454   0.0409   0.4660   0.1514   1
1206.484   0.0296   0.4654   0.1237   1
1206.514   0.1905   0.5251   0.1041   1
1206.544   0.0832   0.4957   0.0911   1
1206.574   0.0378   0.4759   0.0836   1
1206.603   -0.0440   0.4569   0.0812   1
1206.633   0.2356   0.5498   0.0834   1
1206.663   0.2035   0.5299   0.0903   1
1206.693   0.0745   0.4949   0.1012   1
1206.723   0.1494   0.5300   0.1101   1
1206.753   0.0303   0.4885   0.1002   1
1206.783   0.1055   0.5076   0.0631   1
1206.813   0.0287   0.4785   0.0233   1
1206.842   0.0305   0.4815   0.0046   1
1206.872   -0.1297   0.4485   0.0005   1
1206.902   0.1562   0.5237   0.0001   1
1206.932   -0.0127   0.4825   0.0011   1
1206.962   -0.0463   0.4701   0.0091   1
1206.992   -0.0810   0.4631   0.0371   1
1207.022   0.2427   0.5483   0.0798   1
1207.052   0.0860   0.5104   0.0998   1
1207.081   0.0394   0.5044   0.0863   1
1207.111   0.0772   0.5112   0.0690   1
1207.141   0.0885   0.5227   0.0707   1
1207.171   0.0314   0.5065   0.1011   1
1207.201   0.1974   0.5264   0.1700   1
1207.231   0.3977   0.6151   0.2823   1
1207.261   0.2860   0.5608   0.4248   1
1207.291   0.7874   0.7463   0.5635   1
1207.320   0.6415   0.6453   0.6632   1
1207.350   0.5174   0.6536   0.7101   1
1207.380   0.8286   0.7824   0.7131   1
1207.410   0.8544   0.7921   0.6907   1
1207.440   0.5642   0.6939   0.6590   1
1207.470   0.7005   0.7081   0.6276   1
1207.500   0.6262   0.6624   0.6011   1
1207.529   0.5220   0.6709   0.5804   1
1207.559   0.3875   0.6392   0.5628   1
1207.589   1.2646   0.8741   0.5426   1
1207.619   0.2684   0.5917   0.5131   1
1207.649   0.4891   0.6869   0.4712   1
1207.679   0.5852   0.7158   0.4224   1
1207.709   0.2299   0.5548   0.3807   1
1207.739   0.4961   0.7032   0.3627   1
1207.768   0.4867   0.6564   0.3819   1
1207.798   0.4695   0.6778   0.4439   1
1207.828   0.3550   0.6326   0.5434   1
1207.858   0.6511   0.7229   0.6627   1
1207.888   0.9645   0.8353   0.7773   1
1207.918   0.9346   0.8268   0.8676   1
1207.948   0.8301   0.7656   0.9274   1
1207.978   1.3336   0.8782   0.9616   1
1208.007   0.7590   0.7410   0.9796   1
1208.037   1.0451   0.8621   0.9888   1
1208.067   0.7693   0.7492   0.9936   1
1208.097   1.0008   0.8539   0.9962   1
1208.127   0.7726   0.7837   0.9977   1
1208.157   1.0166   0.8760   0.9986   1
1208.187   1.3948   0.9099   0.9990   1
1208.217   1.2035   0.8830   0.9993   1
1208.246   0.9295   0.8407   0.9994   1
1208.276   1.0426   0.8646   0.9995   1
1208.306   1.5998   0.9564   0.9996   1
1208.336   1.7804   0.9756   0.9996   1
1208.366   1.1890   0.8391   0.9996   1
1208.396   1.0641   0.8685   0.9996   1
1208.426   1.1212   0.8617   0.9997   1
1208.456   0.8985   0.8538   0.9997   1
1208.485   1.0683   0.8939   0.9997   1
1208.515   1.2809   0.9122   0.9997   1
1208.545   0.9034   0.8330   0.9997   1
1208.575   0.5352   0.7027   0.9997   1
1208.605   0.8031   0.8326   0.9997   1
1208.635   0.8160   0.8288   0.9997   1
1208.665   1.7326   1.0311   0.9998   1
1208.695   0.6706   0.7761   0.9998   1
1208.724   1.7783   0.9752   0.9998   1
1208.754   1.6860   0.9492   0.9998   1
1208.784   0.4314   0.7014   0.9998   1
1208.814   0.8244   0.8201   0.9998   1
1208.844   0.7132   0.7966   0.9998   1
1208.874   0.8891   0.8555   0.9998   1
1208.904   0.8722   0.8200   0.9998   1
1208.934   1.2626   0.9666   0.9998   1
1208.963   0.9455   0.8896   0.9998   1
1208.993   1.2737   0.9660   0.9998   1
1209.023   1.1597   0.9139   0.9998   1
1209.053   1.7394   1.0593   0.9998   1
1209.083   0.7909   0.8508   0.9998   1
1209.113   0.7933   0.8389   0.9998   1
1209.143   1.3182   0.8985   0.9998   1
1209.172   0.7468   0.8207   0.9999   1
1209.202   0.8210   0.8278   0.9999   1
1209.232   0.8360   0.8574   0.9999   1
1209.262   1.4410   0.9392   0.9999   1
1209.292   1.0000   0.8764   0.9999   1
1209.322   1.2637   0.9895   0.9999   1
1209.352   0.6938   0.8330   0.9999   1
1209.382   1.0325   0.8791   0.9999   1
1209.411   0.8819   0.8176   0.9999   1
1209.441   0.6774   0.8502   0.9999   1
1209.471   0.7940   0.8298   0.9999   1
1209.501   1.2024   0.9763   0.9999   1
