# Best-fit normalized data and profile from VoigtFit
# column 1 : Wavelength
# column 2 : Normalized flux
# column 3 : Normalized error
# column 4 : Best-fit profile
# column 5 : Pixel mask, 1=included, 0=excluded
1297.836   0.9463   0.4088   1.0000   1
1297.866   1.0273   0.4196   1.0000   1
1297.896   0.8304   0.3909   1.0000   1
1297.926   1.0390   0.4239   1.0000   1
1297.955   1.1592   0.4415   1.0000   1
1297.985   0.9126   0.4027   1.0000   1
1298.015   1.2535   0.4532   1.0000   1
1298.045   1.0170   0.4206   1.0000   1
1298.075   1.0004   0.4131   1.0000   1
1298.105   1.1162   0.4329   1.0000   1
1298.135   0.7482   0.3796   1.0000   1
1298.165   1.1789   0.4447   1.0000   1
1298.195   0.9530   0.4112   1.0000   1
1298.225   1.1136   0.4288   1.0000   1
1298.254   0.9244   0.4070   1.0000   1
1298.284   1.4184   0.4758   1.0000   1
1298.314   1.2692   0.4566   1.0000   1
1298.344   0.9504   0.4100   1.0000   1
1298.374   1.1366   0.4383   1.0000   1
1298.404   0.9788   0.4124   1.0000   1
1298.434   1.1563   0.4416   1.0000   1
1298.464   0.8606   0.3939   1.0000   1
1298.494   0.9653   0.4145   1.0000   1
1298.524   1.1339   0.4360   1.0000   1
1298.554   1.0626   0.4271   1.0000   1
1298.584   0.9454   0.4116   1.0000   1
1298.613   0.8518   0.3934   1.0000   1
1298.643   1.1618   0.4423   1.0000   1
1298.673   0.9416   0.4111   1.0000   1
1298.703   1.0514   0.4257   1.0000   1
1298.733   1.2602   0.4555   1.0000   1
1298.763   1.0795   0.4310   1.0000   1
1298.793   0.8289   0.3891   1.0000   1
1298.823   1.0744   0.4164   1.0000   1
1298.853   0.8878   0.3866   1.0000   1
1298.883   1.2440   0.4259   1.0000   1
1298.913   0.8717   0.3680   1.0000   1
1298.942   1.1069   0.3934   1.0000   1
1298.972   0.7754   0.3502   1.0000   1
1299.002   0.7716   0.3556   1.0000   1
1299.032   1.4026   0.4400   1.0000   1
1299.062   1.3674   0.4319   1.0000   1
1299.092   1.3276   0.4237   1.0000   1
1299.122   1.0430   0.3880   1.0000   1
1299.152   0.8496   0.3591   1.0000   1
1299.182   0.8972   0.3607   1.0000   1
1299.212   0.7669   0.3460   1.0000   1
1299.241   0.9915   0.3850   1.0000   1
1299.271   0.8863   0.3796   1.0000   1
1299.301   1.0109   0.4065   1.0000   1
1299.331   0.8468   0.3968   1.0000   1
1299.361   1.1680   0.4443   1.0000   1
1299.391   1.2307   0.4524   1.0000   1
1299.421   1.0945   0.4354   1.0000   1
1299.451   1.0948   0.4323   1.0000   1
1299.481   1.3673   0.4637   1.0000   1
1299.511   1.1341   0.4394   1.0000   1
1299.541   0.9901   0.4193   1.0000   1
1299.570   0.9921   0.4178   1.0000   1
1299.600   0.9224   0.4046   1.0000   1
1299.630   1.0562   0.4264   1.0000   1
1299.660   0.8411   0.3982   1.0000   1
1299.690   0.7767   0.3861   1.0000   1
1299.720   1.1051   0.4373   1.0000   1
1299.750   1.0430   0.4279   1.0000   1
1299.780   0.9351   0.4125   1.0000   1
1299.810   1.0189   0.4213   1.0000   1
1299.840   0.7033   0.3702   1.0000   1
1299.869   0.7779   0.3869   1.0000   1
1299.899   1.1099   0.4380   1.0000   1
1299.929   0.8967   0.4037   1.0000   1
1299.959   1.0799   0.4330   1.0000   1
1299.989   1.0668   0.4312   1.0000   1
1300.019   1.0690   0.4305   1.0000   1
1300.049   1.2152   0.4523   1.0000   1
1300.079   1.2159   0.4512   1.0000   1
1300.109   0.9299   0.4102   1.0000   1
1300.139   1.0347   0.4272   1.0000   1
1300.169   0.8891   0.4039   1.0000   1
1300.198   0.8488   0.3992   1.0000   1
1300.228   0.9346   0.4113   1.0000   0
1300.258   0.7701   0.3837   1.0000   0
1300.288   0.5972   0.3530   1.0000   0
1300.318   0.8341   0.3929   1.0000   0
1300.348   0.9423   0.4128   1.0000   0
1300.378   0.4980   0.3372   1.0000   0
1300.408   0.2957   0.2899   1.0000   0
1300.438   0.4630   0.3299   1.0000   0
1300.468   0.0824   0.2192   1.0000   0
1300.497   0.0223   0.2015   1.0000   0
1300.527   0.0633   0.2188   1.0000   0
1300.557   0.1233   0.2418   1.0000   0
1300.587   0.0199   0.2001   1.0000   0
1300.617   -0.0084   0.1876   1.0000   0
1300.647   0.1656   0.2557   1.0000   0
1300.677   0.0958   0.2265   1.0000   0
1300.707   0.2816   0.2854   1.0000   0
1300.737   0.1981   0.2595   1.0000   0
1300.767   0.3441   0.3034   1.0000   0
1300.796   0.9995   0.4220   1.0000   0
1300.826   0.7301   0.3760   1.0000   0
1300.856   0.7704   0.3853   1.0000   0
1300.886   0.5302   0.3440   1.0000   0
1300.916   0.3678   0.3093   1.0000   0
1300.946   0.3845   0.3141   1.0000   0
1300.976   0.3631   0.3005   1.0000   0
1301.006   0.2966   0.2894   1.0000   0
1301.036   0.4022   0.3159   1.0000   0
1301.066   0.5344   0.3470   1.0000   0
1301.096   0.3848   0.3115   1.0000   0
1301.126   0.7605   0.3847   1.0000   0
1301.155   0.8746   0.4047   1.0000   0
1301.185   1.2112   0.4547   1.0000   0
1301.215   1.0291   0.4287   1.0000   1
1301.245   1.1116   0.4418   1.0000   1
1301.275   0.9799   0.4227   1.0000   1
1301.305   0.8788   0.4071   1.0000   1
1301.335   1.0585   0.4332   1.0000   1
1301.365   0.8591   0.4009   1.0000   1
1301.395   1.0763   0.4342   1.0000   1
1301.425   0.9916   0.4246   1.0000   1
1301.454   0.9753   0.4192   1.0000   1
1301.484   1.0790   0.4376   1.0000   1
1301.514   1.1669   0.4488   1.0000   1
1301.544   1.4479   0.4864   0.9999   1
1301.574   0.7379   0.3837   0.9999   1
1301.604   0.6105   0.3610   0.9997   1
1301.634   0.7869   0.3923   0.9993   1
1301.664   1.0330   0.4303   0.9984   1
1301.694   1.3447   0.4707   0.9963   1
1301.724   1.0952   0.4389   0.9919   1
1301.753   0.9379   0.4160   0.9830   1
1301.783   0.8477   0.4007   0.9663   1
1301.813   0.6115   0.3620   0.9365   1
1301.843   0.7178   0.3786   0.8875   1
1301.873   0.8514   0.4032   0.8140   1
1301.903   0.8453   0.4000   0.7140   1
1301.933   0.8536   0.4015   0.5911   1
1301.963   0.5902   0.3526   0.4568   1
1301.993   0.2224   0.2752   0.3276   1
1302.023   0.0911   0.2347   0.2177   1
1302.053   0.2222   0.2755   0.1353   1
1302.082   0.0629   0.2179   0.0812   1
1302.112   0.1861   0.2637   0.0486   1
1302.142   -0.0131   0.1878   0.0309   1
1302.172   0.0218   0.2037   0.0226   1
1302.202   0.0274   0.2056   0.0207   1
1302.232   0.1612   0.2524   0.0240   1
1302.262   0.0856   0.2289   0.0340   1
1302.292   0.0245   0.2048   0.0540   1
1302.322   0.0597   0.2206   0.0896   1
1302.352   0.1293   0.2466   0.1452   1
1302.382   0.1281   0.2413   0.2195   1
1302.411   0.4093   0.3194   0.3004   1
1302.441   0.4201   0.3235   0.3658   1
1302.471   0.4608   0.3245   0.3905   1
1302.501   0.3001   0.2957   0.3648   1
1302.531   0.3333   0.3019   0.2984   1
1302.561   0.1370   0.2443   0.2153   1
1302.591   0.1934   0.2651   0.1406   1
1302.621   0.0913   0.2337   0.0866   1
1302.651   0.0271   0.2053   0.0537   1
1302.681   0.0676   0.2225   0.0372   1
1302.711   0.1223   0.2319   0.0326   1
1302.740   0.0922   0.2310   0.0378   1
1302.770   0.0281   0.2055   0.0545   1
1302.800   0.0578   0.2185   0.0868   1
1302.830   0.0330   0.2086   0.1360   1
1302.860   0.4417   0.3227   0.1917   1
1302.890   0.3048   0.2945   0.2327   1
1302.920   0.1381   0.2471   0.2451   1
1302.950   0.2308   0.2682   0.2413   1
1302.980   0.3081   0.2969   0.2594   1
1303.010   0.4746   0.3353   0.3339   1
1303.040   0.3238   0.3008   0.4741   1
1303.069   0.7194   0.3815   0.6515   1
1303.099   0.8334   0.4016   0.8121   1
1303.129   0.8506   0.4038   0.9188   1
1303.159   1.1565   0.4431   0.9723   1
1303.189   1.1431   0.4458   0.9925   1
1303.219   1.0471   0.4343   0.9982   1
1303.249   0.8600   0.3957   0.9996   1
1303.279   0.9555   0.4150   0.9999   1
1303.309   0.9278   0.4159   0.9999   1
1303.339   1.1322   0.4476   1.0000   1
1303.368   0.8699   0.4089   1.0000   1
1303.398   0.8579   0.4047   1.0000   1
1303.428   0.9770   0.4243   1.0000   1
1303.458   1.0179   0.4265   1.0000   1
1303.488   0.9298   0.4186   1.0000   1
1303.518   0.8963   0.4123   1.0000   1
1303.548   1.0085   0.4310   1.0000   1
1303.578   1.1356   0.4482   1.0000   1
1303.608   0.9901   0.4268   1.0000   1
1303.638   0.9515   0.4228   1.0000   1
1303.668   0.8242   0.4022   1.0000   1
1303.697   1.1717   0.4528   1.0000   1
1303.727   0.9440   0.4203   1.0000   1
1303.757   0.8877   0.4071   1.0000   1
1303.787   1.2323   0.4633   1.0000   1
1303.817   0.9668   0.4256   1.0000   1
1303.847   1.1446   0.4518   1.0000   1
1303.877   0.8460   0.4015   1.0000   1
1303.907   1.0330   0.4352   1.0000   1
1303.937   0.8673   0.4105   1.0000   1
1303.967   1.1348   0.4505   1.0000   1
1303.996   0.9979   0.4270   1.0000   1
1304.026   1.0750   0.4418   1.0000   1
1304.056   0.8930   0.4103   1.0000   1
1304.086   1.1176   0.4464   1.0000   1
1304.116   0.8999   0.4132   1.0000   1
1304.146   0.7557   0.3926   1.0000   1
1304.176   1.0306   0.4356   1.0000   1
1304.206   0.5019   0.3410   1.0000   0
1304.236   0.2943   0.2931   1.0000   0
1304.266   0.1629   0.2565   1.0000   0
1304.295   0.1580   0.2528   1.0000   0
1304.325   0.0917   0.2347   1.0000   0
1304.355   0.1570   0.2583   1.0000   0
1304.385   0.1254   0.2446   1.0000   0
1304.415   0.0516   0.2224   1.0000   0
1304.445   0.0488   0.2216   1.0000   0
1304.475   0.1301   0.2464   1.0000   0
1304.505   0.2234   0.2732   1.0000   0
1304.535   0.2676   0.2922   1.0000   0
1304.565   0.3672   0.3117   1.0000   0
1304.595   0.4144   0.3259   1.0000   0
1304.624   0.6865   0.3800   1.0000   0
1304.654   0.6842   0.3801   1.0000   0
1304.684   0.4533   0.3347   1.0000   0
1304.714   0.5059   0.3400   1.0000   0
1304.744   0.4423   0.3322   1.0000   0
1304.774   0.3720   0.3126   1.0000   0
1304.804   0.5138   0.3473   1.0000   0
1304.834   0.5751   0.3601   1.0000   0
1304.864   0.4454   0.3311   1.0000   0
1304.894   0.5175   0.3457   1.0000   0
1304.924   0.4928   0.3388   1.0000   0
1304.953   0.0859   0.2338   1.0000   0
1304.983   0.1646   0.2552   1.0000   0
1305.013   0.2612   0.2888   1.0000   0
1305.043   0.5114   0.3452   1.0000   0
1305.073   0.5164   0.3487   1.0000   0
1305.103   0.5043   0.3463   1.0000   0
1305.133   0.4006   0.3253   1.0000   0
1305.163   0.2682   0.2909   1.0000   0
1305.193   0.4755   0.3408   1.0000   0
1305.223   0.4819   0.3390   1.0000   0
1305.252   0.8353   0.4074   1.0000   0
1305.282   0.9311   0.4206   1.0000   0
1305.312   0.9068   0.4201   1.0000   0
1305.342   1.1287   0.4528   1.0000   0
1305.372   0.8832   0.4098   1.0000   0
1305.402   1.3136   0.4774   1.0000   0
1305.432   0.7947   0.4002   1.0000   0
1305.462   0.9293   0.4228   1.0000   0
1305.492   0.7655   0.3940   1.0000   0
1305.522   0.8991   0.4176   1.0000   0
1305.551   0.9096   0.4200   1.0000   0
1305.581   1.2256   0.4664   1.0000   0
1305.611   1.1747   0.4564   1.0000   0
1305.641   1.3680   0.4861   1.0000   0
1305.671   1.2171   0.4654   1.0000   0
1305.701   1.3144   0.4798   1.0000   0
1305.731   0.9998   0.4346   1.0000   1
1305.761   1.1205   0.4476   1.0000   1
1305.791   1.1804   0.4611   1.0000   1
1305.821   1.2534   0.4719   1.0000   1
1305.851   1.1119   0.4524   1.0000   1
1305.880   1.0890   0.4480   1.0000   1
1305.910   1.3094   0.4786   1.0000   1
1305.940   0.7935   0.4031   1.0000   1
1305.970   0.7349   0.3844   1.0000   1
1306.000   1.2741   0.4753   1.0000   1
1306.030   0.7792   0.3950   1.0000   1
1306.060   1.1464   0.4538   1.0000   1
1306.090   0.8356   0.4083   1.0000   1
1306.120   0.8317   0.4032   1.0000   1
1306.150   1.0717   0.4401   1.0000   1
1306.180   1.0068   0.4373   1.0000   1
1306.209   1.0210   0.4367   1.0000   1
1306.239   1.2572   0.4715   1.0000   1
1306.269   1.0093   0.4318   1.0000   1
1306.299   1.2592   0.4691   1.0000   1
1306.329   1.0401   0.4424   1.0000   1
1306.359   1.0119   0.4385   1.0000   1
1306.389   1.2610   0.4727   1.0000   1
1306.419   0.9794   0.4340   1.0000   1
1306.449   1.1876   0.4644   1.0000   1
1306.479   0.7635   0.3900   1.0000   1
1306.509   1.2330   0.4682   1.0000   1
