# Best-fit normalized data and profile from VoigtFit
# column 1 : Wavelength
# column 2 : Normalized flux
# column 3 : Normalized error
# column 4 : Best-fit profile
# column 5 : Pixel mask, 1=included, 0=excluded
1250.489   0.4062   0.1095   1.0000   1
1250.518   0.2092   0.0853   1.0000   0
1250.548   0.2115   0.0824   1.0000   0
1250.578   0.2323   0.0886   1.0000   0
1250.608   0.3177   0.0995   1.0000   0
1250.638   0.4604   0.1147   1.0000   0
1250.668   0.5580   0.1247   1.0000   0
1250.698   0.6935   0.1363   1.0000   0
1250.728   0.8480   0.1488   1.0000   0
1250.758   0.8256   0.1466   1.0000   0
1250.787   0.8976   0.1518   1.0000   0
1250.817   1.0387   0.1622   1.0000   0
1250.847   1.0227   0.1610   1.0000   0
1250.877   0.9475   0.1558   1.0000   0
1250.907   0.9814   0.1582   1.0000   0
1250.937   1.1036   0.1662   1.0000   0
1250.967   1.0263   0.1610   1.0000   1
1250.997   1.1309   0.1680   1.0000   1
1251.027   1.1544   0.1693   1.0000   1
1251.057   1.0327   0.1615   1.0000   1
1251.086   1.0461   0.1625   1.0000   1
1251.116   1.0545   0.1630   1.0000   1
1251.146   1.0332   0.1615   1.0000   1
1251.176   0.9595   0.1566   1.0000   1
1251.206   1.1660   0.1700   1.0000   1
1251.236   0.9532   0.1559   1.0000   1
1251.266   1.0024   0.1595   1.0000   1
1251.296   1.0253   0.1608   1.0000   1
1251.326   1.0567   0.1628   1.0000   1
1251.356   0.9748   0.1574   1.0000   1
1251.385   0.9796   0.1579   1.0000   1
1251.415   0.8987   0.1513   1.0000   1
1251.445   1.0044   0.1593   1.0000   1
1251.475   1.0398   0.1613   1.0000   1
1251.505   1.1020   0.1649   1.0000   1
1251.535   1.0430   0.1617   1.0000   1
1251.565   1.0089   0.1593   1.0000   1
1251.595   0.9431   0.1550   1.0000   1
1251.625   1.0302   0.1604   1.0000   1
1251.655   0.9453   0.1551   1.0000   1
1251.684   0.9991   0.1585   1.0000   1
1251.714   1.0735   0.1636   1.0000   1
1251.744   1.0718   0.1639   1.0000   1
1251.774   0.9748   0.1568   1.0000   1
1251.804   0.8643   0.1488   1.0000   1
1251.834   1.0613   0.1631   1.0000   1
1251.864   0.9780   0.1573   1.0000   1
1251.894   0.8434   0.1476   1.0000   1
1251.924   0.9182   0.1529   1.0000   1
1251.953   1.0148   0.1598   1.0000   1
1251.983   1.0213   0.1598   1.0000   1
1252.013   0.9390   0.1536   1.0000   1
1252.043   0.8477   0.1476   1.0000   1
1252.073   1.0665   0.1630   1.0000   1
1252.103   0.9832   0.1574   1.0000   1
1252.133   1.3072   0.1785   1.0000   1
1252.163   1.0167   0.1595   1.0000   1
1252.193   0.9884   0.1578   1.0000   1
1252.223   1.0050   0.1591   1.0000   1
1252.252   1.0782   0.1637   1.0000   1
1252.282   1.0028   0.1584   1.0000   1
1252.312   1.0450   0.1618   1.0000   1
1252.342   1.0027   0.1602   1.0000   1
1252.372   0.9439   0.1578   1.0000   1
1252.402   1.1613   0.1742   1.0000   1
1252.432   1.1267   0.1721   1.0000   1
1252.462   1.1353   0.1712   1.0000   1
1252.492   1.1024   0.1687   1.0000   1
1252.522   1.0206   0.1624   1.0000   1
1252.551   1.0695   0.1660   1.0000   1
1252.581   1.0214   0.1633   1.0000   1
1252.611   1.0392   0.1650   1.0000   1
1252.641   0.9244   0.1572   1.0000   1
1252.671   1.0402   0.1661   1.0000   1
1252.701   1.1041   0.1703   1.0000   1
1252.731   0.9138   0.1566   1.0000   1
1252.761   1.1269   0.1725   1.0000   1
1252.791   1.0729   0.1647   1.0000   1
1252.821   0.9767   0.1568   1.0000   1
1252.850   1.1017   0.1651   1.0000   1
1252.880   1.0070   0.1586   1.0000   1
1252.910   1.0262   0.1591   1.0000   1
1252.940   1.1029   0.1652   1.0000   1
1252.970   1.0323   0.1604   1.0000   1
1253.000   1.0509   0.1615   1.0000   1
1253.030   1.0424   0.1610   1.0000   1
1253.060   1.0632   0.1624   1.0000   1
1253.090   1.1874   0.1700   1.0000   1
1253.120   0.9706   0.1558   1.0000   1
1253.149   0.9772   0.1566   1.0000   1
1253.179   0.9458   0.1543   1.0000   1
1253.209   1.0626   0.1624   1.0000   1
1253.239   0.9939   0.1576   0.9999   1
1253.269   1.0403   0.1602   0.9999   1
1253.299   0.9560   0.1551   0.9999   1
1253.329   0.9742   0.1581   0.9998   1
1253.359   0.9751   0.1588   0.9996   1
1253.389   1.2018   0.1748   0.9994   1
1253.418   1.0538   0.1636   0.9989   1
1253.448   0.9779   0.1587   0.9980   1
1253.478   1.0239   0.1622   0.9956   1
1253.508   1.0018   0.1601   0.9894   1
1253.538   0.9609   0.1574   0.9735   1
1253.568   1.0628   0.1647   0.9371   1
1253.598   0.8897   0.1529   0.8657   1
1253.628   0.7695   0.1438   0.7491   1
1253.658   0.5696   0.1260   0.5935   1
1253.688   0.4173   0.1098   0.4263   1
1253.717   0.2732   0.0947   0.2826   1
1253.747   0.1820   0.0795   0.1850   1
1253.777   0.1574   0.0760   0.1373   1
1253.807   0.1231   0.0707   0.1345   1
1253.837   0.1609   0.0766   0.1744   1
1253.867   0.2695   0.0922   0.2591   1
1253.897   0.4140   0.1090   0.3836   1
1253.927   0.5745   0.1241   0.5266   1
1253.957   0.5993   0.1269   0.6566   1
1253.987   0.7120   0.1362   0.7502   1
1254.016   0.7297   0.1380   0.8031   1
1254.046   0.8362   0.1461   0.8260   1
1254.076   0.8117   0.1441   0.8329   1
1254.106   0.8785   0.1485   0.8340   1
1254.136   0.9422   0.1538   0.8346   1
1254.166   0.8590   0.1467   0.8369   1
1254.196   0.8473   0.1466   0.8417   1
1254.226   0.8990   0.1504   0.8489   1
1254.256   0.8085   0.1438   0.8582   1
1254.285   0.8879   0.1481   0.8693   1
1254.315   0.8571   0.1474   0.8816   1
1254.345   0.8221   0.1448   0.8947   1
1254.375   0.8595   0.1478   0.9081   1
1254.405   0.8849   0.1494   0.9212   1
1254.435   1.0030   0.1576   0.9337   1
1254.465   0.9535   0.1542   0.9452   1
1254.495   1.0111   0.1576   0.9535   1
1254.525   0.9240   0.1520   0.9445   1
1254.555   0.9087   0.1510   0.8864   1
1254.584   0.8222   0.1443   0.8108   1
1254.614   0.7820   0.1414   0.8312   1
1254.644   1.0002   0.1573   0.9223   1
1254.674   0.9806   0.1553   0.9780   1
1254.704   1.0325   0.1591   0.9927   1
1254.734   0.9061   0.1504   0.9958   1
1254.764   1.0194   0.1584   0.9972   1
1254.794   1.0558   0.1611   0.9981   1
1254.824   1.0786   0.1626   0.9988   1
1254.854   0.9618   0.1545   0.9992   1
1254.883   0.9940   0.1546   0.9995   1
1254.913   1.0222   0.1587   0.9997   1
1254.943   1.0068   0.1570   0.9998   1
1254.973   1.0325   0.1589   0.9999   1
1255.003   0.9337   0.1522   0.9999   1
1255.033   1.0586   0.1610   1.0000   1
1255.063   1.0926   0.1632   1.0000   1
1255.093   1.1095   0.1644   1.0000   1
1255.123   1.1115   0.1643   1.0000   1
1255.153   0.8858   0.1490   1.0000   1
1255.182   0.9726   0.1550   1.0000   1
1255.212   1.0735   0.1611   1.0000   1
1255.242   1.0187   0.1571   1.0000   1
1255.272   1.0013   0.1568   1.0000   1
1255.302   0.9358   0.1524   1.0000   1
1255.332   1.0275   0.1588   1.0000   1
1255.362   0.9484   0.1530   1.0000   1
1255.392   0.9918   0.1561   1.0000   1
1255.422   0.9780   0.1555   1.0000   1
1255.451   1.0976   0.1632   1.0000   0
1255.481   1.1318   0.1656   1.0000   0
1255.511   0.9187   0.1511   1.0000   0
1255.541   0.9739   0.1549   1.0000   0
1255.571   0.7251   0.1362   1.0000   0
1255.601   0.9558   0.1533   1.0000   0
1255.631   0.9208   0.1514   1.0000   0
1255.661   1.0003   0.1569   1.0000   0
1255.691   1.0833   0.1624   1.0000   0
1255.721   1.0824   0.1616   1.0000   0
1255.750   0.9946   0.1564   1.0000   0
1255.780   0.9795   0.1553   1.0000   0
1255.810   0.9914   0.1560   1.0000   0
1255.840   0.9952   0.1564   1.0000   1
1255.870   0.9033   0.1498   1.0000   1
1255.900   1.0038   0.1570   1.0000   1
1255.930   1.0027   0.1568   1.0000   1
1255.960   0.8916   0.1494   1.0000   1
1255.990   1.0518   0.1598   1.0000   1
1256.020   1.0173   0.1587   1.0000   1
1256.049   0.8901   0.1515   1.0000   1
1256.079   0.9023   0.1535   1.0000   1
1256.109   1.0452   0.1636   1.0000   1
1256.139   0.9022   0.1528   1.0000   1
1256.169   1.1218   0.1672   1.0000   1
1256.199   0.9906   0.1582   1.0000   1
1256.229   0.9325   0.1544   1.0000   1
1256.259   0.9565   0.1560   1.0000   1
1256.289   1.0020   0.1590   1.0000   1
1256.319   1.0929   0.1668   1.0000   1
1256.348   0.8482   0.1487   1.0000   1
1256.378   0.9723   0.1583   1.0000   1
1256.408   0.8816   0.1509   1.0000   1
1256.438   1.1281   0.1659   1.0000   1
1256.468   0.8825   0.1491   1.0000   1
1256.498   0.8729   0.1477   1.0000   1
1256.528   0.9832   0.1554   1.0000   1
1256.558   0.9605   0.1539   1.0000   1
1256.588   1.1142   0.1639   1.0000   1
1256.618   0.9123   0.1504   1.0000   1
1256.647   0.9588   0.1538   1.0000   1
1256.677   0.9464   0.1525   1.0000   1
1256.707   0.8902   0.1489   1.0000   1
1256.737   0.9436   0.1525   1.0000   1
1256.767   1.0155   0.1574   1.0000   1
1256.797   0.9995   0.1563   1.0000   1
1256.827   0.9864   0.1547   1.0000   1
1256.857   1.0962   0.1628   1.0000   1
1256.887   0.8769   0.1477   1.0000   1
1256.916   1.1002   0.1632   1.0000   1
1256.946   1.0322   0.1586   1.0000   1
1256.976   0.9283   0.1515   1.0000   1
1257.006   0.9734   0.1537   1.0000   1
1257.036   1.1503   0.1662   1.0000   1
1257.066   1.0632   0.1607   1.0000   1
1257.096   1.0530   0.1599   1.0000   1
1257.126   1.0209   0.1574   1.0000   1
1257.156   1.1087   0.1634   1.0000   1
