# Best-fit normalized data and profile from VoigtFit
# column 1 : Wavelength
# column 2 : Normalized flux
# column 3 : Normalized error
# column 4 : Best-fit profile
# column 5 : Pixel mask, 1=included, 0=excluded
1203.281   1.0324   0.1958   1.0000   1
1203.310   0.8527   0.1809   1.0000   1
1203.340   1.0934   0.1996   1.0000   1
1203.370   0.9948   0.1918   1.0000   1
1203.400   1.0341   0.1953   1.0000   1
1203.430   0.8394   0.1778   1.0000   1
1203.460   0.9562   0.1872   1.0000   1
1203.490   0.8079   0.1750   1.0000   1
1203.520   0.8285   0.1772   1.0000   1
1203.550   1.0140   0.1928   1.0000   1
1203.580   0.9244   0.1861   1.0000   1
1203.609   0.9158   0.1856   1.0000   1
1203.639   0.9943   0.1921   1.0000   1
1203.669   0.8636   0.1815   1.0000   1
1203.699   0.8516   0.1802   1.0000   1
1203.729   1.0369   0.1958   1.0000   1
1203.759   1.0187   0.1945   1.0000   1
1203.789   0.9207   0.1867   1.0000   1
1203.819   1.0060   0.1944   1.0000   1
1203.849   0.8677   0.1829   1.0000   1
1203.879   1.0864   0.2009   1.0000   1
1203.908   1.0285   0.1967   1.0000   1
1203.938   0.9669   0.1910   1.0000   1
1203.968   1.0958   0.2021   1.0000   1
1203.998   1.0287   0.1973   1.0000   1
1204.028   1.1154   0.2042   1.0000   1
1204.058   0.7879   0.1764   1.0000   1
1204.088   1.1465   0.2053   1.0000   1
1204.118   0.9826   0.1941   1.0000   1
1204.148   1.1210   0.2055   1.0000   1
1204.178   0.8898   0.1872   1.0000   1
1204.207   0.9788   0.1945   1.0000   1
1204.237   1.1068   0.2044   1.0000   1
1204.267   0.8654   0.1847   1.0000   1
1204.297   1.0602   0.2015   1.0000   1
1204.327   1.0049   0.1978   1.0000   1
1204.357   1.0814   0.2041   1.0000   1
1204.387   1.2349   0.2157   1.0000   1
1204.417   1.1243   0.2074   1.0000   1
1204.447   1.0643   0.2034   1.0000   1
1204.476   0.9291   0.1923   1.0000   1
1204.506   1.1187   0.2076   1.0000   1
1204.536   1.2134   0.2151   1.0000   1
1204.566   0.9145   0.1912   1.0000   1
1204.596   0.9840   0.1970   1.0000   1
1204.626   0.9809   0.1976   1.0000   1
1204.656   0.9153   0.1908   1.0000   1
1204.686   1.0386   0.2025   1.0000   1
1204.716   0.9124   0.1930   1.0000   1
1204.746   1.2119   0.2164   1.0000   1
1204.775   1.0039   0.2010   1.0000   1
1204.805   0.9856   0.1996   1.0000   1
1204.835   0.9021   0.1925   1.0000   1
1204.865   0.9606   0.1981   1.0000   1
1204.895   0.9923   0.2007   1.0000   1
1204.925   0.9979   0.2015   1.0000   1
1204.955   1.1597   0.2145   1.0000   1
1204.985   0.9536   0.1981   1.0000   1
1205.015   0.8638   0.1897   1.0000   1
1205.045   1.0045   0.2033   1.0000   1
1205.074   1.1821   0.2157   1.0000   1
1205.104   1.0319   0.2052   1.0000   1
1205.134   1.0084   0.2038   1.0000   1
1205.164   0.8451   0.1895   1.0000   1
1205.194   1.0308   0.2061   1.0000   1
1205.224   1.0354   0.2056   1.0000   1
1205.254   1.0472   0.2077   1.0000   1
1205.284   1.0894   0.2113   1.0000   1
1205.314   1.0034   0.2051   1.0000   1
1205.344   0.9705   0.2018   1.0000   1
1205.373   1.1976   0.2211   1.0000   1
1205.403   0.9796   0.2037   1.0000   1
1205.433   0.8894   0.1963   1.0000   1
1205.463   1.0626   0.2106   1.0000   1
1205.493   1.4129   0.2385   0.9999   1
1205.523   0.9959   0.2059   0.9999   1
1205.553   0.9207   0.1999   0.9999   1
1205.583   1.0319   0.2090   0.9999   1
1205.613   1.1604   0.2203   0.9999   1
1205.642   1.0343   0.2120   0.9999   1
1205.672   0.9624   0.2077   0.9999   1
1205.702   1.0530   0.2173   0.9999   1
1205.732   0.9850   0.2137   0.9999   1
1205.762   0.9629   0.2079   0.9999   1
1205.792   0.8410   0.1957   0.9999   1
1205.822   1.1088   0.2198   0.9999   1
1205.852   1.0947   0.2198   0.9999   1
1205.882   1.0762   0.2197   0.9999   1
1205.912   0.9874   0.2127   0.9999   1
1205.941   1.0258   0.2148   0.9999   1
1205.971   0.9039   0.2050   0.9999   1
1206.001   1.1849   0.2303   0.9998   1
1206.031   1.0238   0.2155   0.9998   1
1206.061   1.0434   0.2159   0.9998   1
1206.091   1.1323   0.2247   0.9997   1
1206.121   0.9638   0.2104   0.9994   1
1206.151   1.2276   0.2317   0.9987   1
1206.181   1.1334   0.2242   0.9969   1
1206.211   1.0883   0.2201   0.9921   1
1206.240   1.1420   0.2237   0.9809   1
1206.270   1.1194   0.2231   0.9567   1
1206.300   1.0905   0.2195   0.9097   1
1206.330   0.7761   0.1926   0.8292   1
1206.360   0.7080   0.1854   0.7103   1
1206.390   0.5038   0.1613   0.5607   1
1206.420   0.4075   0.1481   0.4025   1
1206.450   0.2109   0.1118   0.2633   1
1206.480   0.2108   0.1183   0.1604   1
1206.510   0.1540   0.1048   0.0958   1
1206.539   0.0562   0.0817   0.0605   1
1206.569   0.0406   0.0750   0.0441   1
1206.599   0.0503   0.0760   0.0384   1
1206.629   0.0200   0.0671   0.0384   1
1206.659   0.0232   0.0723   0.0405   1
1206.689   0.0514   0.0824   0.0416   1
1206.719   0.0443   0.0773   0.0401   1
1206.749   0.0362   0.0761   0.0358   1
1206.779   0.0852   0.0958   0.0301   1
1206.809   -0.0078   0.0639   0.0248   1
1206.838   0.0061   0.0665   0.0208   1
1206.868   0.0632   0.0880   0.0189   1
1206.898   -0.0020   0.0652   0.0192   1
1206.928   0.0644   0.0832   0.0221   1
1206.958   0.0201   0.0691   0.0284   1
1206.988   0.0763   0.0885   0.0392   1
1207.018   0.0414   0.0797   0.0540   1
1207.048   0.0736   0.0914   0.0674   1
1207.078   0.0477   0.0811   0.0697   1
1207.107   0.0544   0.0806   0.0586   1
1207.137   0.0767   0.0921   0.0477   1
1207.167   0.1010   0.1001   0.0625   1
1207.197   0.0726   0.0924   0.1352   1
1207.227   0.3704   0.1510   0.2863   1
1207.257   0.4507   0.1613   0.4858   1
1207.287   0.7397   0.1973   0.6617   1
1207.317   0.7286   0.1953   0.7682   1
1207.347   0.8038   0.2059   0.8129   1
1207.377   0.8064   0.2063   0.8223   1
1207.406   0.6995   0.1945   0.8161   1
1207.436   0.9935   0.2242   0.8057   1
1207.466   0.8948   0.2160   0.7985   1
1207.496   0.7005   0.1960   0.7992   1
1207.526   0.8323   0.2085   0.8098   1
1207.556   0.7745   0.2029   0.8298   1
1207.586   0.9449   0.2209   0.8568   1
1207.616   0.8282   0.2109   0.8870   1
1207.646   0.9024   0.2187   0.9166   1
1207.676   0.9033   0.2191   0.9425   1
1207.705   1.0760   0.2354   0.9630   1
1207.735   0.9120   0.2207   0.9777   1
1207.765   1.1359   0.2410   0.9875   1
1207.795   1.0764   0.2364   0.9934   1
1207.825   0.9544   0.2255   0.9967   1
1207.855   0.9912   0.2292   0.9985   1
1207.885   0.9330   0.2228   0.9993   1
1207.915   1.0008   0.2313   0.9997   1
1207.945   1.0463   0.2354   0.9998   1
1207.975   1.0764   0.2384   0.9999   1
1208.004   1.1477   0.2457   0.9999   1
1208.034   0.8223   0.2153   0.9999   1
1208.064   0.9811   0.2299   0.9999   1
1208.094   0.9625   0.2301   0.9999   1
1208.124   1.0044   0.2336   0.9999   1
1208.154   1.0617   0.2399   0.9999   1
1208.184   0.9796   0.2331   0.9999   1
1208.214   1.0635   0.2398   0.9999   1
1208.244   1.0937   0.2438   1.0000   1
1208.273   1.1213   0.2474   1.0000   1
1208.303   1.2093   0.2553   1.0000   1
1208.333   1.1568   0.2509   1.0000   1
1208.363   0.9153   0.2287   1.0000   1
1208.393   1.0590   0.2418   1.0000   1
1208.423   1.0762   0.2440   1.0000   1
1208.453   1.0560   0.2434   1.0000   1
1208.483   1.0116   0.2394   1.0000   1
1208.513   0.9827   0.2374   1.0000   1
1208.543   1.0969   0.2482   1.0000   1
1208.572   1.0060   0.2403   1.0000   1
1208.602   1.0730   0.2470   1.0000   1
1208.632   1.0319   0.2427   1.0000   1
1208.662   0.8938   0.2295   1.0000   1
1208.692   0.8379   0.2244   1.0000   1
1208.722   0.8570   0.2262   1.0000   1
1208.752   0.9222   0.2332   1.0000   1
1208.782   0.8734   0.2292   1.0000   1
1208.812   1.0845   0.2509   1.0000   1
1208.842   0.9416   0.2371   1.0000   1
1208.871   1.2289   0.2646   1.0000   1
1208.901   1.0157   0.2451   1.0000   1
1208.931   1.0765   0.2521   1.0000   1
1208.961   0.9106   0.2360   1.0000   1
1208.991   0.9452   0.2395   1.0000   1
1209.021   1.0528   0.2509   1.0000   1
1209.051   0.8103   0.2263   1.0000   1
1209.081   0.9558   0.2427   1.0000   1
1209.111   0.8656   0.2319   1.0000   1
1209.140   1.0861   0.2542   1.0000   1
1209.170   0.8922   0.2369   1.0000   1
1209.200   1.1359   0.2604   1.0000   1
1209.230   1.0511   0.2547   1.0000   1
1209.260   0.9260   0.2423   1.0000   1
1209.290   0.9588   0.2461   1.0000   1
1209.320   0.9214   0.2424   1.0000   1
1209.350   0.9590   0.2470   1.0000   1
1209.380   0.9531   0.2472   1.0000   1
1209.410   0.8638   0.2372   1.0000   1
1209.439   0.9849   0.2507   1.0000   1
1209.469   0.8514   0.2354   1.0000   1
1209.499   1.0379   0.2554   1.0000   1
1209.529   0.6801   0.2189   1.0000   1
1209.559   1.0508   0.2599   1.0000   1
1209.589   0.8614   0.2408   1.0000   1
1209.619   1.0696   0.2613   1.0000   1
1209.649   1.0613   0.2624   1.0000   1
1209.679   0.9054   0.2454   1.0000   1
1209.709   0.9974   0.2569   1.0000   1
