# Best-fit normalized data and profile from VoigtFit
# column 1 : Wavelength
# column 2 : Normalized flux
# column 3 : Normalized error
# column 4 : Best-fit profile
# column 5 : Pixel mask, 1=included, 0=excluded
1189.337   inf   inf   1.0000   1
1189.367   inf   inf   1.0000   1
1189.397   inf   inf   1.0000   1
1189.427   inf   inf   1.0000   1
1189.456   inf   inf   1.0000   1
1189.486   inf   inf   1.0000   1
1189.516   inf   inf   1.0000   1
1189.546   inf   inf   1.0000   1
1189.576   inf   inf   1.0000   1
1189.606   inf   inf   1.0000   1
1189.636   inf   inf   1.0000   1
1189.666   inf   inf   1.0000   1
1189.695   inf   inf   1.0000   1
1189.725   inf   inf   1.0000   1
1189.755   inf   inf   1.0000   1
1189.785   inf   inf   1.0000   1
1189.815   inf   inf   1.0000   1
1189.845   inf   inf   1.0000   1
1189.875   inf   inf   1.0000   0
1189.905   0.8258   0.6876   1.0000   0
1189.934   1.0903   0.7833   1.0000   0
1189.964   1.5749   0.8808   1.0000   0
1189.994   0.8179   0.6974   1.0000   0
1190.024   1.0576   0.7598   1.0000   0
1190.054   0.7439   0.6873   1.0000   0
1190.084   1.1154   0.7431   1.0000   0
1190.114   0.6764   0.6459   1.0000   0
1190.144   1.1363   0.7699   1.0000   0
1190.173   0.4486   0.5661   1.0000   0
1190.203   0.3970   0.5498   1.0000   0
1190.233   0.4599   0.5638   1.0000   0
1190.263   -0.0147   0.4424   1.0000   0
1190.293   0.0750   0.4551   1.0000   0
1190.323   0.1447   0.4686   1.0000   0
1190.353   0.1468   0.4851   1.0000   0
1190.382   -0.0748   0.4261   1.0000   0
1190.412   0.1041   0.4639   1.0000   0
1190.442   0.2043   0.4900   1.0000   0
1190.472   0.1545   0.4788   1.0000   0
1190.502   0.2129   0.4976   1.0000   0
1190.532   0.0753   0.4594   1.0000   0
1190.562   0.0731   0.4556   1.0000   0
1190.592   0.0731   0.4577   1.0000   0
1190.621   0.2295   0.5052   1.0000   0
1190.651   0.0928   0.4598   1.0000   0
1190.681   0.2609   0.5102   1.0000   0
1190.711   0.3099   0.5357   1.0000   0
1190.741   0.1527   0.4809   1.0000   0
1190.771   0.3047   0.5503   1.0000   0
1190.801   0.3866   0.5313   1.0000   0
1190.831   0.3859   0.5495   1.0000   0
1190.860   0.4363   0.5715   1.0000   0
1190.890   0.1622   0.4947   1.0000   0
1190.920   0.4603   0.5882   1.0000   0
1190.950   0.1293   0.4808   0.9999   0
1190.980   0.3777   0.5450   0.9999   0
1191.010   0.7670   0.6779   0.9999   0
1191.040   0.9414   0.6748   0.9999   0
1191.070   0.7710   0.6739   0.9999   0
1191.099   0.9109   0.7036   0.9999   0
1191.129   0.6690   0.6690   0.9999   0
1191.159   0.9743   0.7336   0.9999   1
1191.189   1.2442   0.7901   0.9999   1
1191.219   1.1174   0.7306   0.9999   1
1191.249   0.6150   0.6223   0.9999   1
1191.279   0.7665   0.6720   0.9999   1
1191.309   1.2540   0.7585   0.9999   1
1191.338   1.2353   0.7454   0.9999   1
1191.368   0.7496   0.6778   0.9999   1
1191.398   0.7681   0.6964   0.9999   1
1191.428   0.6882   0.6412   0.9999   1
1191.458   0.8733   0.7015   0.9999   1
1191.488   0.7551   0.6499   0.9999   1
1191.518   1.3333   0.7824   0.9999   1
1191.548   1.2783   0.7838   0.9999   1
1191.577   1.0105   0.7312   0.9999   1
1191.607   1.3777   0.8046   0.9999   1
1191.637   1.1883   0.7463   0.9999   1
1191.667   0.8432   0.6555   0.9999   1
1191.697   0.9374   0.7105   0.9999   1
1191.727   0.5395   0.5826   0.9999   1
1191.757   1.0186   0.7035   0.9999   1
1191.787   1.3127   0.7906   0.9999   1
1191.816   1.4218   0.8020   0.9999   1
1191.846   1.2285   0.7573   0.9999   1
1191.876   1.1608   0.7282   0.9999   1
1191.906   1.3969   0.7844   0.9999   1
1191.936   1.3280   0.7855   0.9998   1
1191.966   1.3130   0.7644   0.9998   1
1191.996   0.6935   0.6353   0.9998   1
1192.026   1.0435   0.6952   0.9998   1
1192.055   1.4765   0.7607   0.9998   1
1192.085   1.0118   0.6970   0.9997   1
1192.115   1.2221   0.7428   0.9997   1
1192.145   0.8863   0.6274   0.9996   1
1192.175   1.0668   0.6788   0.9995   1
1192.205   1.4320   0.7580   0.9994   1
1192.235   1.0667   0.6591   0.9993   1
1192.265   0.8244   0.5972   0.9990   1
1192.294   0.8120   0.6349   0.9988   1
1192.324   1.1031   0.6985   0.9984   1
1192.354   0.8024   0.6242   0.9979   1
1192.384   1.2587   0.7291   0.9972   1
1192.414   0.8523   0.6229   0.9964   1
1192.444   1.0856   0.6265   0.9952   1
1192.474   0.7912   0.5640   0.9938   1
1192.504   0.9990   0.6282   0.9920   1
1192.533   1.1160   0.6784   0.9896   1
1192.563   1.2073   0.6952   0.9867   1
1192.593   1.0419   0.6647   0.9830   1
1192.623   1.1212   0.6751   0.9784   1
1192.653   0.9813   0.6438   0.9728   1
1192.683   0.6307   0.5328   0.9659   1
1192.713   1.1371   0.6610   0.9574   1
1192.742   0.8444   0.5879   0.9471   1
1192.772   0.7108   0.5619   0.9343   1
1192.802   0.7072   0.5391   0.9184   1
1192.832   0.7548   0.5397   0.8983   1
1192.862   1.5936   0.7200   0.8725   1
1192.892   0.9747   0.5950   0.8384   1
1192.922   1.0168   0.6096   0.7927   1
1192.952   0.6726   0.5336   0.7320   1
1192.981   0.5944   0.4913   0.6532   1
1193.011   0.4690   0.4321   0.5558   1
1193.041   0.6477   0.5342   0.4435   1
1193.071   0.2410   0.3970   0.3258   1
1193.101   0.1806   0.3833   0.2161   1
1193.131   0.1804   0.3752   0.1272   1
1193.161   0.0593   0.3396   0.0653   1
1193.191   0.1562   0.3635   0.0288   1
1193.220   -0.0752   0.2946   0.0108   1
1193.250   0.0000   0.3117   0.0035   1
1193.280   -0.0216   0.3039   0.0010   1
1193.310   0.0087   0.3074   0.0003   1
1193.340   0.0300   0.3084   0.0001   1
1193.370   0.2564   0.3811   0.0000   1
1193.400   0.0120   0.3004   0.0000   1
1193.430   -0.0130   0.2905   0.0000   1
1193.459   -0.0599   0.2778   0.0000   1
1193.489   0.1373   0.3194   0.0000   1
1193.519   0.1096   0.3160   0.0000   1
1193.549   0.0690   0.3122   0.0000   1
1193.579   -0.0595   0.2712   0.0001   1
1193.609   -0.0567   0.2697   0.0004   1
1193.639   0.0655   0.3032   0.0014   1
1193.669   -0.0105   0.2854   0.0042   1
1193.698   0.0544   0.2953   0.0106   1
1193.728   0.0791   0.3014   0.0237   1
1193.758   0.0539   0.2944   0.0461   1
1193.788   0.0667   0.2903   0.0784   1
1193.818   0.0395   0.2806   0.1190   1
1193.848   0.1532   0.3174   0.1642   1
1193.878   0.3530   0.3494   0.2103   1
1193.908   0.1722   0.3320   0.2542   1
1193.937   0.4360   0.3862   0.2948   1
1193.967   0.2732   0.3283   0.3325   1
1193.997   0.4273   0.3746   0.3681   1
1194.027   0.3595   0.3572   0.4027   1
1194.057   0.3490   0.3798   0.4372   1
1194.087   0.3915   0.3978   0.4722   1
1194.117   0.4271   0.3929   0.5078   1
1194.147   0.6908   0.4559   0.5441   1
1194.176   0.8349   0.4498   0.5807   1
1194.206   0.7008   0.4402   0.6175   1
1194.236   0.6508   0.4370   0.6538   1
1194.266   0.5304   0.4125   0.6889   1
1194.296   0.6949   0.4582   0.7208   1
1194.326   0.6978   0.4465   0.7410   1
1194.356   0.8375   0.4938   0.7279   1
1194.386   0.6114   0.4234   0.6553   1
1194.415   0.6238   0.4236   0.5378   1
1194.445   0.3457   0.3542   0.4529   1
1194.475   0.5723   0.4370   0.4754   1
1194.505   0.6992   0.4687   0.6047   1
1194.535   0.5877   0.4426   0.7652   1
1194.565   0.9916   0.5255   0.8779   1
1194.595   1.0213   0.5328   0.9320   1
1194.624   0.7631   0.4746   0.9539   1
1194.654   1.1623   0.5580   0.9646   1
1194.684   0.8980   0.5104   0.9719   1
1194.714   0.9929   0.5313   0.9777   1
1194.744   1.2772   0.5839   0.9824   1
1194.774   0.7796   0.4971   0.9862   1
1194.804   1.0474   0.5393   0.9893   1
1194.834   0.9847   0.5171   0.9917   1
1194.863   1.1037   0.5556   0.9936   1
1194.893   1.1402   0.5725   0.9951   1
1194.923   0.8849   0.5149   0.9963   1
1194.953   1.1698   0.5844   0.9972   1
1194.983   0.9812   0.5346   0.9979   1
1195.013   0.7573   0.4613   0.9984   1
1195.043   0.8039   0.5143   0.9988   1
1195.073   1.1672   0.5836   0.9991   1
1195.102   1.0054   0.5377   0.9993   1
1195.132   0.8868   0.5224   0.9995   1
1195.162   0.9420   0.5584   0.9996   1
1195.192   1.0575   0.5468   0.9997   1
1195.222   0.7454   0.5220   0.9997   1
1195.252   0.9576   0.5661   0.9998   1
1195.282   0.9786   0.5646   0.9998   1
1195.312   1.2407   0.6144   0.9998   1
1195.341   0.7293   0.5295   0.9999   1
1195.371   1.1696   0.6042   0.9999   1
1195.401   0.9856   0.5855   0.9999   1
1195.431   0.5820   0.5053   0.9999   1
1195.461   0.7544   0.5393   0.9999   1
1195.491   1.0972   0.6279   0.9999   1
1195.521   0.9906   0.6131   0.9999   1
1195.551   0.9617   0.5945   0.9999   1
1195.580   1.2904   0.6796   0.9999   1
1195.610   1.0723   0.5874   0.9999   1
1195.640   1.0302   0.6227   0.9999   1
1195.670   0.6882   0.5778   0.9999   1
1195.700   0.7527   0.5783   0.9999   1
1195.730   1.1191   0.6534   0.9999   1
1195.760   1.0017   0.6526   0.9999   1
1195.790   1.0187   0.6252   0.9999   1
1195.819   1.2299   0.6951   0.9999   1
1195.849   0.7945   0.6357   0.9999   1
1195.879   0.9634   0.6710   0.9999   1
1195.909   0.8675   0.6364   0.9999   1
1195.939   0.6462   0.5893   0.9999   1
1195.969   1.3929   0.7699   0.9999   1
1195.999   1.9974   0.8460   0.9999   1
1196.029   1.1177   0.7213   0.9999   1
1196.058   0.9411   0.6901   0.9999   1
1196.088   0.9858   0.6735   0.9999   1
1196.118   1.2241   0.7466   1.0000   1
1196.148   1.2091   0.7206   1.0000   1
1196.178   0.9603   0.7154   1.0000   1
1196.208   1.2800   0.7638   1.0000   1
1196.238   1.9157   0.8462   1.0000   1
1196.267   1.1678   0.7615   1.0000   1
1196.297   1.2218   0.7429   1.0000   1
1196.327   1.4806   0.7821   1.0000   1
1196.357   1.1011   0.7363   1.0000   1
1196.387   1.6241   0.8377   1.0000   1
1196.417   0.9796   0.6945   1.0000   1
1196.447   1.0557   0.7130   1.0000   1
1196.477   1.2442   0.7728   1.0000   1
1196.506   1.3486   0.7733   1.0000   1
1196.536   1.2656   0.7643   1.0000   1
1196.566   0.8278   0.6303   1.0000   1
1196.596   1.3779   0.7763   1.0000   1
1196.626   0.6708   0.6063   1.0000   1
1196.656   0.7667   0.6441   1.0000   1
1196.686   0.7006   0.5610   1.0000   1
1196.716   1.0512   0.6711   1.0000   1
1196.745   1.2164   0.6900   1.0000   1
1196.775   1.0206   0.6754   1.0000   1
1196.805   0.7028   0.5733   1.0000   1
1196.835   0.5391   0.5537   1.0000   1
1196.865   0.8785   0.6097   1.0000   1
1196.895   0.8982   0.6018   1.0000   1
1196.925   1.1750   0.6489   1.0000   1
1196.955   1.1011   0.6068   1.0000   1
1196.984   1.2401   0.6266   1.0000   1
1197.014   inf   inf   1.0000   1
1197.044   inf   inf   1.0000   1
1197.074   inf   inf   1.0000   1
1197.104   inf   inf   1.0000   1
1197.134   inf   inf   1.0000   1
1197.164   inf   inf   1.0000   1
1197.194   inf   inf   1.0000   1
1197.223   inf   inf   1.0000   1
1197.253   inf   inf   1.0000   1
