# Best-fit normalized data and profile from VoigtFit
# column 1 : Wavelength
# column 2 : Normalized flux
# column 3 : Normalized error
# column 4 : Best-fit profile
# column 5 : Pixel mask, 1=included, 0=excluded
1202.481   0.7613   0.5665   1.0000   1
1202.511   0.8150   0.5508   1.0000   1
1202.541   1.0606   0.6246   1.0000   1
1202.571   0.8572   0.5840   1.0000   1
1202.601   0.7196   0.5432   1.0000   1
1202.630   0.9791   0.5893   1.0000   1
1202.660   1.2571   0.6666   1.0000   1
1202.690   1.1977   0.6257   1.0000   1
1202.720   1.0695   0.6035   1.0000   1
1202.750   0.6281   0.5392   1.0000   1
1202.780   0.9466   0.6224   1.0000   1
1202.810   0.8964   0.6019   1.0000   1
1202.840   1.1785   0.6646   1.0000   1
1202.869   0.6151   0.5560   1.0000   1
1202.899   0.9787   0.6331   1.0000   1
1202.929   1.1504   0.6699   1.0000   1
1202.959   0.6557   0.5662   1.0000   1
1202.989   1.1379   0.6831   1.0000   1
1203.019   0.9273   0.6219   1.0000   1
1203.049   1.4223   0.7298   1.0000   1
1203.078   0.6821   0.5639   1.0000   1
1203.108   0.7718   0.6091   1.0000   1
1203.138   0.8342   0.6116   1.0000   1
1203.168   0.7719   0.6016   1.0000   1
1203.198   1.1297   0.6852   1.0000   1
1203.228   1.1592   0.6913   1.0000   1
1203.258   1.0544   0.6706   1.0000   1
1203.288   0.8504   0.6144   1.0000   1
1203.317   1.6314   0.7690   1.0000   1
1203.347   0.9549   0.6310   1.0000   1
1203.377   1.0695   0.6471   1.0000   1
1203.407   0.9798   0.6512   1.0000   1
1203.437   0.8636   0.6191   1.0000   1
1203.467   0.8369   0.6217   1.0000   1
1203.497   0.4948   0.5352   1.0000   1
1203.527   1.1859   0.6971   1.0000   1
1203.556   1.1965   0.7041   1.0000   1
1203.586   0.6800   0.5562   1.0000   1
1203.616   0.8043   0.6231   1.0000   1
1203.646   0.9836   0.6348   1.0000   1
1203.676   1.1354   0.6801   1.0000   1
1203.706   1.5704   0.7740   1.0000   1
1203.736   0.9655   0.6183   1.0000   1
1203.766   1.3083   0.7014   1.0000   1
1203.795   1.7013   0.7983   1.0000   1
1203.825   0.9058   0.6533   1.0000   1
1203.855   1.0289   0.6532   1.0000   1
1203.885   1.0322   0.6617   1.0000   1
1203.915   0.7956   0.6359   1.0000   1
1203.945   1.0151   0.6889   1.0000   1
1203.975   0.9506   0.6544   1.0000   1
1204.005   1.3078   0.7309   1.0000   1
1204.034   1.6493   0.7913   1.0000   1
1204.064   0.8833   0.6017   1.0000   1
1204.094   0.9263   0.6686   1.0000   1
1204.124   1.0340   0.6708   1.0000   1
1204.154   1.1798   0.7155   1.0000   1
1204.184   0.7200   0.6301   1.0000   1
1204.214   0.8259   0.6492   1.0000   1
1204.244   0.9762   0.6683   1.0000   1
1204.273   0.8379   0.5976   1.0000   1
1204.303   1.0109   0.6921   1.0000   1
1204.333   0.9857   0.6951   1.0000   1
1204.363   0.8379   0.6695   1.0000   1
1204.393   0.9642   0.6936   1.0000   1
1204.423   1.3516   0.7564   1.0000   1
1204.453   1.1231   0.7186   1.0000   1
1204.483   1.0826   0.7316   1.0000   1
1204.512   1.2083   0.7279   1.0000   1
1204.542   0.6131   0.6146   1.0000   1
1204.572   1.2440   0.7612   1.0000   1
1204.602   1.0144   0.6919   1.0000   1
1204.632   1.2545   0.7437   1.0000   1
1204.662   1.1531   0.7547   1.0000   1
1204.692   0.6357   0.6256   1.0000   1
1204.721   0.9731   0.7175   1.0000   1
1204.751   1.4140   0.7803   1.0000   1
1204.781   1.0937   0.7357   1.0000   1
1204.811   1.3247   0.7611   1.0000   1
1204.841   0.6155   0.6139   1.0000   1
1204.871   1.1810   0.7614   1.0000   1
1204.901   0.6268   0.5813   1.0000   1
1204.931   0.8953   0.7097   1.0000   1
1204.960   0.8381   0.6808   1.0000   1
1204.990   0.9787   0.7290   1.0000   1
1205.020   1.1275   0.7630   1.0000   1
1205.050   1.1378   0.7355   1.0000   1
1205.080   1.3084   0.7966   1.0000   1
1205.110   1.5946   0.8450   1.0000   1
1205.140   1.1502   0.7447   1.0000   1
1205.170   1.4114   0.8187   1.0000   1
1205.199   1.3082   0.8026   1.0000   1
1205.229   0.9452   0.7383   1.0000   1
1205.259   1.6236   0.8629   0.9999   1
1205.289   1.4683   0.8125   0.9999   1
1205.319   0.8195   0.6957   0.9999   1
1205.349   1.2838   0.7912   0.9999   1
1205.379   0.5944   0.6104   0.9999   1
1205.409   1.0890   0.7224   0.9999   1
1205.438   1.5311   0.8291   0.9999   1
1205.468   1.1468   0.7401   0.9999   1
1205.498   1.1559   0.7786   0.9999   1
1205.528   0.8327   0.7179   0.9999   1
1205.558   0.8201   0.7075   0.9999   1
1205.588   0.4865   0.6366   0.9999   1
1205.618   0.9496   0.7453   0.9999   1
1205.648   1.2179   0.7931   0.9999   1
1205.677   1.3861   0.8212   0.9998   1
1205.707   1.1661   0.7987   0.9997   1
1205.737   1.1088   0.8226   0.9996   1
1205.767   1.2668   0.8484   0.9994   1
1205.797   1.3827   0.8638   0.9991   1
1205.827   1.4621   0.8792   0.9986   1
1205.857   1.0533   0.7666   0.9977   1
1205.887   1.2420   0.8524   0.9963   1
1205.916   0.7066   0.7147   0.9941   1
1205.946   1.4992   0.8729   0.9907   1
1205.976   0.7180   0.7099   0.9857   1
1206.006   0.8909   0.7514   0.9782   1
1206.036   1.1416   0.8014   0.9673   1
1206.066   0.6335   0.7056   0.9518   1
1206.096   1.2020   0.8493   0.9305   1
1206.126   1.0601   0.7852   0.9018   1
1206.155   1.0298   0.7853   0.8638   1
1206.185   0.5760   0.6825   0.8156   1
1206.215   0.9323   0.7408   0.7564   1
1206.245   0.4468   0.6437   0.6867   1
1206.275   0.7069   0.7218   0.6076   1
1206.305   0.7113   0.6841   0.5219   1
1206.335   0.3329   0.5762   0.4338   1
1206.364   0.3228   0.6181   0.3478   1
1206.394   0.2062   0.5852   0.2685   1
1206.424   0.3785   0.6017   0.1991   1
1206.454   0.0450   0.5130   0.1424   1
1206.484   0.0327   0.5129   0.0983   1
1206.514   0.2102   0.5794   0.0659   1
1206.544   0.0919   0.5477   0.0431   1
1206.574   0.0418   0.5264   0.0278   1
1206.603   -0.0487   0.5059   0.0179   1
1206.633   0.2613   0.6096   0.0118   1
1206.663   0.2259   0.5883   0.0080   1
1206.693   0.0828   0.5501   0.0057   1
1206.723   0.1662   0.5897   0.0043   1
1206.753   0.0338   0.5443   0.0036   1
1206.783   0.1176   0.5662   0.0033   1
1206.813   0.0320   0.5344   0.0033   1
1206.842   0.0342   0.5384   0.0037   1
1206.872   -0.1452   0.5021   0.0045   1
1206.902   0.1751   0.5870   0.0059   1
1206.932   -0.0142   0.5415   0.0084   1
1206.962   -0.0520   0.5282   0.0125   1
1206.992   -0.0911   0.5210   0.0192   1
1207.022   0.2733   0.6176   0.0297   1
1207.052   0.0970   0.5756   0.0458   1
1207.081   0.0445   0.5695   0.0699   1
1207.111   0.0873   0.5779   0.1041   1
1207.141   0.1002   0.5916   0.1502   1
1207.171   0.0356   0.5740   0.2088   1
1207.201   0.2240   0.5972   0.2795   1
1207.231   0.4518   0.6988   0.3600   1
1207.261   0.3253   0.6379   0.4465   1
1207.291   0.8967   0.8499   0.5341   1
1207.320   0.7315   0.7358   0.6176   1
1207.350   0.5907   0.7461   0.6923   1
1207.380   0.9471   0.8943   0.7534   1
1207.410   0.9778   0.9065   0.7960   1
1207.440   0.6465   0.7951   0.8162   1
1207.470   0.8036   0.8123   0.8106   1
1207.500   0.7193   0.7609   0.7782   1
1207.529   0.6003   0.7716   0.7221   1
1207.559   0.4463   0.7360   0.6502   1
1207.589   1.4580   1.0078   0.5749   1
1207.619   0.3099   0.6830   0.5082   1
1207.649   0.5653   0.7939   0.4598   1
1207.679   0.6773   0.8284   0.4353   1
1207.709   0.2664   0.6429   0.4388   1
1207.739   0.5755   0.8159   0.4694   1
1207.768   0.5654   0.7625   0.5246   1
1207.798   0.5460   0.7883   0.5994   1
1207.828   0.4134   0.7367   0.6848   1
1207.858   0.7591   0.8428   0.7701   1
1207.888   1.1260   0.9752   0.8451   1
1207.918   1.0924   0.9664   0.9038   1
1207.948   0.9715   0.8961   0.9451   1
1207.978   1.5629   1.0291   0.9712   1
1208.007   0.8905   0.8695   0.9860   1
1208.037   1.2279   1.0128   0.9936   1
1208.067   0.9049   0.8813   0.9973   1
1208.097   1.1787   1.0057   0.9989   1
1208.127   0.9112   0.9242   0.9995   1
1208.157   1.2004   1.0344   0.9998   1
1208.187   1.6491   1.0758   0.9999   1
1208.217   1.4247   1.0453   0.9999   1
1208.246   1.1017   0.9965   0.9999   1
1208.276   1.2374   1.0261   0.9999   1
1208.306   1.9010   1.1365   0.9999   1
1208.336   2.1183   1.1608   0.9999   1
1208.366   1.4165   0.9996   0.9999   1
1208.396   1.2693   1.0359   0.9999   1
1208.426   1.3391   1.0291   0.9999   1
1208.456   1.0746   1.0210   0.9999   1
1208.485   1.2792   1.0703   0.9999   1
1208.515   1.5357   1.0937   1.0000   1
1208.545   1.0845   1.0000   1.0000   1
1208.575   0.6433   0.8447   1.0000   1
1208.605   0.9665   1.0021   1.0000   1
1208.635   0.9834   0.9987   1.0000   1
1208.665   2.0907   1.2441   1.0000   1
1208.695   0.8102   0.9377   1.0000   1
1208.724   2.1513   1.1798   1.0000   1
1208.754   2.0423   1.1498   1.0000   1
1208.784   0.5232   0.8507   1.0000   1
1208.814   1.0012   0.9959   1.0000   1
1208.844   0.8673   0.9687   1.0000   1
1208.874   1.0826   1.0416   1.0000   1
1208.904   1.0634   0.9997   1.0000   1
1208.934   1.5414   1.1800   1.0000   1
1208.963   1.1557   1.0874   1.0000   1
1208.993   1.5589   1.1823   1.0000   1
1209.023   1.4212   1.1199   1.0000   1
1209.053   2.1344   1.2999   1.0000   1
1209.083   0.9717   1.0453   1.0000   1
1209.113   0.9760   1.0322   1.0000   1
1209.143   1.6238   1.1069   1.0000   1
1209.172   0.9212   1.0123   1.0000   1
1209.202   1.0141   1.0224   1.0000   1
1209.232   1.0339   1.0604   1.0000   1
1209.262   1.7845   1.1631   1.0000   1
1209.292   1.2400   1.0868   1.0000   1
1209.322   1.5690   1.2286   1.0000   1
1209.352   0.8625   1.0356   1.0000   1
1209.382   1.2853   1.0944   1.0000   1
1209.411   1.0993   1.0192   1.0000   1
1209.441   0.8455   1.0612   1.0000   1
1209.471   0.9923   1.0371   1.0000   1
1209.501   1.5047   1.2217   1.0000   1
1209.531   1.5524   1.2025   1.0000   1
1209.561   1.3457   1.1217   1.0000   1
1209.591   1.2724   1.1474   1.0000   1
1209.621   1.0640   1.0876   1.0000   1
1209.650   0.5790   0.9071   1.0000   1
1209.680   0.5220   0.9411   1.0000   1
1209.710   0.6203   0.9754   1.0000   1
1209.740   0.8746   0.9604   1.0000   1
1209.770   0.7244   1.0117   1.0000   1
1209.800   0.8751   1.0590   1.0000   1
1209.830   0.7632   1.0395   1.0000   1
1209.860   0.6640   1.0060   1.0000   1
1209.889   0.9491   1.1279   1.0000   1
1209.919   0.2663   0.9041   1.0000   1
1209.949   -0.0373   0.7979   1.0000   1
1209.979   0.3579   0.9548   1.0000   1
1210.009   0.5621   0.9782   1.0000   1
1210.039   0.1388   0.8803   1.0000   1
1210.069   0.1490   0.8671   1.0000   1
1210.099   1.0703   1.1356   1.0000   1
1210.128   0.8402   1.0978   1.0000   1
1210.158   0.9471   1.1722   1.0000   1
1210.188   0.5300   1.0421   1.0000   1
1210.218   0.8572   1.1511   1.0000   1
1210.248   0.5400   1.0196   1.0000   1
1210.278   0.7623   1.0901   1.0000   1
1210.308   0.7198   1.0559   1.0000   1
1210.338   1.0147   1.1421   1.0000   1
1210.367   0.9880   1.2259   1.0000   1
1210.397   1.7250   1.3907   1.0000   1
1210.427   0.9826   1.1909   1.0000   1
1210.457   0.6347   1.0820   1.0000   1
1210.487   0.8583   1.1484   1.0000   1
1210.517   1.1370   1.3075   1.0000   1
