# Best-fit normalized data and profile from VoigtFit
# column 1 : Wavelength
# column 2 : Normalized flux
# column 3 : Normalized error
# column 4 : Best-fit profile
# column 5 : Pixel mask, 1=included, 0=excluded
# 1189.337   inf   inf   1.0000   1
# 1189.367   inf   inf   1.0000   1
1189.397   1.2647   0.7987   1.0000   1
1189.427   1.2540   0.8037   1.0000   1
1189.456   0.9073   0.7282   1.0000   1
1189.486   1.1046   0.7778   1.0000   1
1189.516   0.9576   0.7478   1.0000   1
1189.546   1.4704   0.8652   1.0000   1
1189.576   1.2504   0.8083   1.0000   1
1189.606   1.1894   0.8401   1.0000   1
1189.636   1.2218   0.8148   1.0000   1
1189.666   1.3302   0.8430   1.0000   1
1189.695   1.2445   0.8524   1.0000   1
1189.725   1.1601   0.8196   1.0000   1
1189.755   1.2499   0.8524   1.0000   1
1189.785   0.9894   0.8194   1.0000   1
1189.815   1.7446   0.9747   1.0000   1
1189.845   1.1483   0.8142   1.0000   1
1189.875   1.3794   0.8919   1.0000   1
1189.905   0.9331   0.7770   1.0000   1
1189.934   1.2453   0.8947   1.0000   1
1189.964   1.8170   1.0163   1.0000   1
1189.994   0.9527   0.8124   1.0000   1
1190.024   1.2431   0.8931   1.0000   1
1190.054   0.8817   0.8146   1.0000   1
1190.084   1.3321   0.8875   1.0000   1
1190.114   0.8134   0.7769   1.0000   1
1190.144   1.3753   0.9318   1.0000   0
1190.173   0.5460   0.6891   1.0000   0
1190.203   0.4856   0.6725   1.0000   0
1190.233   0.5649   0.6925   1.0000   0
1190.263   -0.0181   0.5454   1.0000   0
1190.293   0.0927   0.5627   1.0000   0
1190.323   0.1793   0.5807   1.0000   0
1190.353   0.1822   0.6020   1.0000   0
1190.382   -0.0929   0.5292   1.0000   0
1190.412   0.1293   0.5763   1.0000   0
1190.442   0.2538   0.6085   1.0000   0
1190.472   0.1916   0.5939   1.0000   0
1190.502   0.2637   0.6162   1.0000   0
1190.532   0.0931   0.5675   1.0000   0
1190.562   0.0901   0.5612   1.0000   0
1190.592   0.0897   0.5617   1.0000   0
1190.621   0.2805   0.6173   1.0000   0
1190.651   0.1129   0.5591   1.0000   0
1190.681   0.3156   0.6171   1.0000   0
1190.711   0.3726   0.6441   1.0000   0
1190.741   0.1825   0.5744   1.0000   0
1190.771   0.3615   0.6527   1.0000   0
1190.801   0.4551   0.6254   1.0000   0
1190.831   0.4506   0.6417   1.0000   0
1190.860   0.5051   0.6616   1.0000   0
1190.890   0.1861   0.5676   1.0000   0
1190.920   0.5232   0.6685   1.0000   0
1190.950   0.1455   0.5410   1.0000   0
1190.980   0.4207   0.6070   1.0000   0
1191.010   0.8452   0.7470   1.0000   0
1191.040   1.0259   0.7354   1.0000   0
1191.070   0.8307   0.7261   1.0000   0
1191.099   0.9700   0.7493   1.0000   0
1191.129   0.7040   0.7040   1.0000   0
1191.159   1.0126   0.7625   1.0000   0
1191.189   1.2770   0.8109   1.0000   1
1191.219   1.1323   0.7404   1.0000   1
1191.249   0.6154   0.6226   1.0000   1
1191.279   0.7572   0.6638   1.0000   1
1191.309   1.2231   0.7398   1.0000   1
1191.338   1.1898   0.7179   1.0000   1
1191.368   0.7131   0.6448   1.0000   1
1191.398   0.7219   0.6546   1.0000   1
1191.428   0.6393   0.5956   1.0000   1
1191.458   0.8021   0.6443   1.0000   1
1191.488   0.6859   0.5904   1.0000   1
1191.518   1.1986   0.7034   1.0000   1
1191.548   1.1378   0.6976   1.0000   1
1191.577   0.8911   0.6448   1.0000   1
1191.607   1.2043   0.7033   1.0000   1
1191.637   1.0304   0.6472   1.0000   1
1191.667   0.7258   0.5643   1.0000   1
1191.697   0.8016   0.6075   1.0000   1
1191.727   0.4586   0.4953   1.0000   1
1191.757   0.8616   0.5951   1.0000   1
1191.787   1.1057   0.6659   0.9999   1
1191.816   1.1937   0.6733   0.9999   1
1191.846   1.0290   0.6344   0.9999   1
1191.876   0.9710   0.6091   0.9999   1
1191.906   1.1681   0.6559   0.9999   1
1191.936   1.1113   0.6573   0.9999   1
1191.966   1.1007   0.6408   0.9999   1
1191.996   0.5831   0.5342   0.9999   1
1192.026   0.8811   0.5870   0.9999   1
1192.055   1.2533   0.6456   0.9999   1
1192.085   0.8643   0.5954   0.9999   1
1192.115   1.0516   0.6392   0.9999   1
1192.145   0.7690   0.5444   0.9999   1
1192.175   0.9342   0.5945   0.9999   1
1192.205   1.2667   0.6705   0.9999   1
1192.235   0.9539   0.5894   0.9999   1
1192.265   0.7459   0.5403   0.9999   1
1192.294   0.7437   0.5815   0.9999   1
1192.324   1.0235   0.6481   0.9999   1
1192.354   0.7547   0.5870   0.9999   1
1192.384   1.2005   0.6954   0.9999   1
1192.414   0.8248   0.6027   0.9999   1
1192.444   1.0662   0.6153   0.9999   1
1192.474   0.7890   0.5625   0.9998   1
1192.504   1.0118   0.6362   0.9998   1
1192.533   1.1481   0.6979   0.9998   1
1192.563   1.2617   0.7266   0.9998   1
1192.593   1.1062   0.7057   0.9998   1
1192.623   1.2091   0.7281   0.9998   1
1192.653   1.0748   0.7051   0.9997   1
1192.683   0.7015   0.5925   0.9997   1
1192.713   1.2837   0.7462   0.9996   1
1192.742   0.9672   0.6733   0.9995   1
1192.772   0.8255   0.6525   0.9992   1
1192.802   0.8323   0.6345   0.9984   1
1192.832   0.8995   0.6431   0.9966   1
1192.862   1.9213   0.8681   0.9920   1
1192.892   1.1878   0.7251   0.9813   1
1192.922   1.2515   0.7504   0.9578   1
1192.952   0.8354   0.6628   0.9116   1
1192.981   0.7444   0.6154   0.8318   1
1193.011   0.5917   0.5452   0.7127   1
1193.041   0.8227   0.6785   0.5606   1
1193.071   0.3079   0.5072   0.3980   1
1193.101   0.2320   0.4922   0.2539   1
1193.131   0.2326   0.4839   0.1477   1
1193.161   0.0768   0.4396   0.0816   1
1193.191   0.2028   0.4719   0.0464   1
1193.220   -0.0979   0.3833   0.0305   1
1193.250   0.0000   0.4062   0.0258   1
1193.280   -0.0282   0.3964   0.0278   1
1193.310   0.0113   0.4012   0.0343   1
1193.340   0.0391   0.4025   0.0432   1
1193.370   0.3344   0.4970   0.0513   1
1193.400   0.0157   0.3913   0.0551   1
1193.430   -0.0168   0.3778   0.0529   1
1193.459   -0.0778   0.3605   0.0464   1
1193.489   0.1778   0.4135   0.0382   1
1193.519   0.1415   0.4079   0.0307   1
1193.549   0.0889   0.4018   0.0251   1
1193.579   -0.0763   0.3478   0.0219   1
1193.609   -0.0725   0.3446   0.0207   1
1193.639   0.0833   0.3857   0.0217   1
1193.669   -0.0133   0.3615   0.0252   1
1193.698   0.0686   0.3723   0.0317   1
1193.728   0.0993   0.3782   0.0428   1
1193.758   0.0673   0.3674   0.0605   1
1193.788   0.0829   0.3604   0.0872   1
1193.818   0.0488   0.3466   0.1258   1
1193.848   0.1881   0.3898   0.1784   1
1193.878   0.4311   0.4266   0.2460   1
1193.908   0.2090   0.4030   0.3255   1
1193.937   0.5262   0.4660   0.4037   1
1193.967   0.3277   0.3939   0.4556   1
1193.997   0.5095   0.4466   0.4566   1
1194.027   0.4260   0.4233   0.4163   1
1194.057   0.4111   0.4473   0.3917   1
1194.087   0.4582   0.4656   0.4459   1
1194.117   0.4968   0.4570   0.5836   1
1194.147   0.7986   0.5270   0.7480   1
1194.176   0.9592   0.5167   0.8588   1
1194.206   0.8001   0.5026   0.8488   1
1194.236   0.7384   0.4958   0.7135   1
1194.266   0.5982   0.4651   0.6271   1
1194.296   0.7789   0.5136   0.7207   1
1194.326   0.7774   0.4974   0.8504   1
1194.356   0.9275   0.5468   0.8494   1
1194.386   0.6730   0.4660   0.7259   1
1194.415   0.6826   0.4636   0.5746   1
1194.445   0.3761   0.3854   0.4903   1
1194.475   0.6190   0.4728   0.5233   1
1194.505   0.7521   0.5041   0.6543   1
1194.535   0.6287   0.4734   0.8116   1
1194.565   1.0550   0.5591   0.9238   1
1194.595   1.0808   0.5638   0.9772   1
1194.624   0.8033   0.4996   0.9948   1
1194.654   1.2173   0.5844   0.9990   1
1194.684   0.9359   0.5319   0.9997   1
1194.714   1.0298   0.5510   0.9998   1
1194.744   1.3184   0.6027   0.9998   1
1194.774   0.8011   0.5108   0.9998   1
1194.804   1.0715   0.5517   0.9998   1
1194.834   1.0030   0.5268   0.9999   1
1194.863   1.1195   0.5636   0.9999   1
1194.893   1.1520   0.5784   0.9999   1
1194.923   0.8905   0.5182   0.9999   1
1194.953   1.1728   0.5859   0.9999   1
1194.983   0.9802   0.5341   0.9999   1
1195.013   0.7539   0.4592   0.9999   1
1195.043   0.7975   0.5102   0.9999   1
1195.073   1.1542   0.5771   0.9999   1
1195.102   0.9911   0.5300   0.9999   1
1195.132   0.8716   0.5134   0.9999   1
1195.162   0.9232   0.5472   0.9999   1
1195.192   1.0336   0.5344   0.9999   1
1195.222   0.7267   0.5089   0.9999   1
1195.252   0.9313   0.5506   0.9999   1
1195.282   0.9496   0.5478   0.9999   1
1195.312   1.2014   0.5950   0.9999   1
1195.341   0.7049   0.5118   0.9999   1
1195.371   1.1286   0.5830   0.9999   1
1195.401   0.9495   0.5641   0.9999   1
1195.431   0.5599   0.4862   1.0000   1
1195.461   0.7250   0.5183   1.0000   1
1195.491   1.0536   0.6029   1.0000   1
1195.521   0.9505   0.5883   1.0000   1
1195.551   0.9223   0.5701   1.0000   1
1195.580   1.2374   0.6517   1.0000   1
1195.610   1.0283   0.5633   1.0000   1
1195.640   0.9883   0.5974   1.0000   1
1195.670   0.6607   0.5547   1.0000   1
1195.700   0.7232   0.5556   1.0000   1
1195.730   1.0765   0.6285   1.0000   1
1195.760   0.9651   0.6287   1.0000   1
1195.790   0.9834   0.6036   1.0000   1
1195.819   1.1900   0.6726   1.0000   1
1195.849   0.7708   0.6167   1.0000   1
1195.879   0.9375   0.6529   1.0000   1
1195.909   0.8471   0.6214   1.0000   1
1195.939   0.6334   0.5777   1.0000   1
1195.969   1.3715   0.7580   1.0000   1
1195.999   1.9760   0.8369   1.0000   1
1196.029   1.1115   0.7172   1.0000   1
1196.058   0.9411   0.6901   1.0000   1
1196.088   0.9918   0.6776   1.0000   1
1196.118   1.2395   0.7559   1.0000   1
1196.148   1.2326   0.7346   1.0000   1
1196.178   0.9860   0.7345   1.0000   1
1196.208   1.3243   0.7902   1.0000   1
1196.238   1.9976   0.8824   1.0000   1
1196.267   1.2277   0.8006   1.0000   1
1196.297   1.2953   0.7876   1.0000   1
1196.327   1.5834   0.8363   1.0000   1
1196.357   1.1880   0.7944   1.0000   1
1196.387   1.7680   0.9119   1.0000   1
1196.417   1.0762   0.7630   1.0000   1
1196.447   1.1705   0.7905   1.0000   1
1196.477   1.3921   0.8647   1.0000   1
1196.506   1.5227   0.8731   1.0000   1
1196.536   1.4419   0.8707   1.0000   1
1196.566   0.9515   0.7245   1.0000   1
1196.596   1.5975   0.9000   1.0000   1
1196.626   0.7841   0.7088   1.0000   1
1196.656   0.9034   0.7590   1.0000   1
1196.686   0.8319   0.6662   1.0000   1
1196.716   1.2572   0.8026   1.0000   1
1196.745   1.4645   0.8308   1.0000   1
1196.775   1.2364   0.8182   1.0000   1
1196.805   0.8561   0.6984   1.0000   1
1196.835   0.6600   0.6778   1.0000   1
1196.865   1.0803   0.7497   1.0000   1
1196.895   1.1087   0.7429   1.0000   1
1196.925   1.4550   0.8035   1.0000   1
1196.955   1.3668   0.7532   1.0000   1
1196.984   1.5423   0.7793   1.0000   1
1197.014   1.4143   0.7709   1.0000   1
1197.044   0.7742   0.6220   1.0000   1
1197.074   1.2062   0.7085   1.0000   1
1197.104   0.7084   0.5634   1.0000   1
1197.134   1.1068   0.6626   1.0000   1
1197.164   0.5823   0.5229   1.0000   1
# 1197.194   inf   inf   1.0000   1
# 1197.223   inf   inf   1.0000   1
# 1197.253   inf   inf   1.0000   1
