# Best-fit normalized data and profile from VoigtFit
# column 1 : Wavelength
# column 2 : Normalized flux
# column 3 : Normalized error
# column 4 : Best-fit profile
# column 5 : Pixel mask, 1=included, 0=excluded
1202.481   0.7636   0.5682   1.0000   1
1202.511   0.8175   0.5525   1.0000   1
1202.541   1.0638   0.6264   1.0000   1
1202.571   0.8598   0.5857   1.0000   1
1202.601   0.7217   0.5447   1.0000   1
1202.630   0.9819   0.5910   1.0000   1
1202.660   1.2606   0.6685   1.0000   1
1202.690   1.2010   0.6274   1.0000   1
1202.720   1.0725   0.6051   1.0000   1
1202.750   0.6298   0.5407   1.0000   1
1202.780   0.9491   0.6240   1.0000   1
1202.810   0.8988   0.6034   1.0000   1
1202.840   1.1815   0.6663   1.0000   1
1202.869   0.6167   0.5574   1.0000   1
1202.899   0.9811   0.6347   1.0000   1
1202.929   1.1532   0.6716   1.0000   1
1202.959   0.6573   0.5676   1.0000   1
1202.989   1.1405   0.6847   1.0000   1
1203.019   0.9294   0.6233   1.0000   1
1203.049   1.4255   0.7314   1.0000   1
1203.078   0.6836   0.5652   1.0000   1
1203.108   0.7734   0.6104   1.0000   1
1203.138   0.8360   0.6129   1.0000   1
1203.168   0.7734   0.6028   1.0000   1
1203.198   1.1320   0.6865   1.0000   1
1203.228   1.1615   0.6926   1.0000   1
1203.258   1.0565   0.6719   1.0000   1
1203.288   0.8520   0.6155   1.0000   1
1203.317   1.6344   0.7704   1.0000   1
1203.347   0.9566   0.6321   1.0000   1
1203.377   1.0714   0.6482   1.0000   1
1203.407   0.9814   0.6523   1.0000   1
1203.437   0.8650   0.6201   1.0000   1
1203.467   0.8383   0.6227   1.0000   1
1203.497   0.4956   0.5361   1.0000   1
1203.527   1.1877   0.6981   1.0000   1
1203.556   1.1982   0.7051   1.0000   1
1203.586   0.6810   0.5570   1.0000   1
1203.616   0.8053   0.6240   1.0000   1
1203.646   0.9849   0.6357   1.0000   1
1203.676   1.1368   0.6810   1.0000   1
1203.706   1.5724   0.7750   1.0000   1
1203.736   0.9666   0.6191   1.0000   1
1203.766   1.3097   0.7022   1.0000   1
1203.795   1.7031   0.7992   1.0000   1
1203.825   0.9068   0.6540   1.0000   1
1203.855   1.0300   0.6539   1.0000   1
1203.885   1.0332   0.6624   1.0000   1
1203.915   0.7963   0.6365   1.0000   1
1203.945   1.0160   0.6895   1.0000   1
1203.975   0.9513   0.6549   1.0000   1
1204.005   1.3089   0.7315   1.0000   1
1204.034   1.6505   0.7919   1.0000   1
1204.064   0.8839   0.6021   1.0000   1
1204.094   0.9269   0.6691   1.0000   1
1204.124   1.0346   0.6712   1.0000   1
1204.154   1.1805   0.7159   1.0000   1
1204.184   0.7204   0.6305   1.0000   1
1204.214   0.8263   0.6495   1.0000   1
1204.244   0.9766   0.6686   1.0000   1
1204.273   0.8383   0.5978   1.0000   1
1204.303   1.0112   0.6923   1.0000   1
1204.333   0.9860   0.6953   1.0000   1
1204.363   0.8381   0.6697   1.0000   1
1204.393   0.9644   0.6937   1.0000   1
1204.423   1.3518   0.7565   1.0000   1
1204.453   1.1232   0.7187   1.0000   1
1204.483   1.0827   0.7317   1.0000   1
1204.512   1.2084   0.7279   1.0000   1
1204.542   0.6131   0.6146   1.0000   1
1204.572   1.2439   0.7611   1.0000   1
1204.602   1.0143   0.6919   1.0000   1
1204.632   1.2544   0.7436   1.0000   1
1204.662   1.1529   0.7546   1.0000   1
1204.692   0.6356   0.6255   1.0000   1
1204.721   0.9729   0.7174   1.0000   1
1204.751   1.4136   0.7801   1.0000   1
1204.781   1.0934   0.7355   1.0000   1
1204.811   1.3242   0.7608   1.0000   1
1204.841   0.6152   0.6136   1.0000   1
1204.871   1.1805   0.7610   1.0000   1
1204.901   0.6265   0.5810   1.0000   1
1204.931   0.8948   0.7093   1.0000   1
1204.960   0.8376   0.6804   1.0000   1
1204.990   0.9781   0.7285   1.0000   1
1205.020   1.1267   0.7625   1.0000   1
1205.050   1.1370   0.7350   1.0000   1
1205.080   1.3075   0.7960   1.0000   1
1205.110   1.5933   0.8444   1.0000   1
1205.140   1.1493   0.7441   1.0000   1
1205.170   1.4102   0.8180   1.0000   1
1205.199   1.3070   0.8019   1.0000   1
1205.229   0.9443   0.7376   1.0000   1
1205.259   1.6220   0.8620   1.0000   1
1205.289   1.4669   0.8117   0.9999   1
1205.319   0.8186   0.6950   0.9999   1
1205.349   1.2824   0.7904   0.9999   1
1205.379   0.5938   0.6097   0.9999   1
1205.409   1.0878   0.7215   0.9999   1
1205.438   1.5293   0.8282   0.9999   1
1205.468   1.1454   0.7392   0.9999   1
1205.498   1.1544   0.7776   0.9999   1
1205.528   0.8316   0.7169   0.9999   1
1205.558   0.8190   0.7065   0.9999   1
1205.588   0.4859   0.6358   0.9999   1
1205.618   0.9483   0.7443   0.9999   1
1205.648   1.2161   0.7920   0.9999   1
1205.677   1.3840   0.8200   0.9998   1
1205.707   1.1643   0.7975   0.9997   1
1205.737   1.1070   0.8213   0.9996   1
1205.767   1.2648   0.8470   0.9994   1
1205.797   1.3805   0.8624   0.9991   1
1205.827   1.4597   0.8778   0.9985   1
1205.857   1.0515   0.7653   0.9976   1
1205.887   1.2399   0.8510   0.9962   1
1205.916   0.7054   0.7134   0.9939   1
1205.946   1.4965   0.8713   0.9905   1
1205.976   0.7167   0.7086   0.9854   1
1206.006   0.8893   0.7500   0.9777   1
1206.036   1.1394   0.7998   0.9667   1
1206.066   0.6323   0.7043   0.9510   1
1206.096   1.1996   0.8476   0.9295   1
1206.126   1.0580   0.7836   0.9005   1
1206.155   1.0277   0.7837   0.8623   1
1206.185   0.5749   0.6811   0.8139   1
1206.215   0.9303   0.7392   0.7546   1
1206.245   0.4459   0.6423   0.6848   1
1206.275   0.7053   0.7203   0.6058   1
1206.305   0.7098   0.6826   0.5203   1
1206.335   0.3322   0.5749   0.4325   1
1206.364   0.3220   0.6167   0.3469   1
1206.394   0.2057   0.5839   0.2679   1
1206.424   0.3777   0.6003   0.1989   1
1206.454   0.0449   0.5118   0.1425   1
1206.484   0.0326   0.5117   0.0986   1
1206.514   0.2097   0.5780   0.0662   1
1206.544   0.0917   0.5464   0.0434   1
1206.574   0.0417   0.5251   0.0281   1
1206.603   -0.0486   0.5047   0.0182   1
1206.633   0.2606   0.6081   0.0120   1
1206.663   0.2253   0.5868   0.0082   1
1206.693   0.0826   0.5487   0.0058   1
1206.723   0.1658   0.5882   0.0045   1
1206.753   0.0337   0.5428   0.0037   1
1206.783   0.1173   0.5648   0.0034   1
1206.813   0.0319   0.5329   0.0034   1
1206.842   0.0341   0.5369   0.0038   1
1206.872   -0.1448   0.5007   0.0046   1
1206.902   0.1746   0.5854   0.0061   1
1206.932   -0.0142   0.5400   0.0086   1
1206.962   -0.0519   0.5268   0.0128   1
1206.992   -0.0908   0.5196   0.0194   1
1207.022   0.2726   0.6158   0.0300   1
1207.052   0.0967   0.5739   0.0461   1
1207.081   0.0444   0.5678   0.0702   1
1207.111   0.0871   0.5762   0.1042   1
1207.141   0.0999   0.5899   0.1501   1
1207.171   0.0355   0.5723   0.2084   1
1207.201   0.2233   0.5955   0.2787   1
1207.231   0.4504   0.6967   0.3589   1
1207.261   0.3243   0.6360   0.4449   1
1207.291   0.8940   0.8473   0.5322   1
1207.320   0.7293   0.7335   0.6155   1
1207.350   0.5889   0.7438   0.6901   1
1207.380   0.9442   0.8916   0.7511   1
1207.410   0.9748   0.9037   0.7937   1
1207.440   0.6444   0.7926   0.8139   1
1207.470   0.8011   0.8098   0.8082   1
1207.500   0.7171   0.7585   0.7758   1
1207.529   0.5985   0.7691   0.7196   1
1207.559   0.4448   0.7337   0.6478   1
1207.589   1.4534   1.0046   0.5728   1
1207.619   0.3089   0.6808   0.5064   1
1207.649   0.5635   0.7914   0.4582   1
1207.679   0.6751   0.8257   0.4339   1
1207.709   0.2655   0.6408   0.4373   1
1207.739   0.5736   0.8132   0.4678   1
1207.768   0.5635   0.7600   0.5228   1
1207.798   0.5442   0.7857   0.5974   1
1207.828   0.4121   0.7342   0.6827   1
1207.858   0.7566   0.8401   0.7681   1
1207.888   1.1223   0.9720   0.8433   1
1207.918   1.0888   0.9632   0.9025   1
1207.948   0.9683   0.8931   0.9442   1
1207.978   1.5576   1.0256   0.9706   1
1208.007   0.8875   0.8665   0.9856   1
1208.037   1.2237   1.0094   0.9934   1
1208.067   0.9019   0.8783   0.9972   1
1208.097   1.1747   1.0024   0.9988   1
1208.127   0.9081   0.9211   0.9995   1
1208.157   1.1963   1.0309   0.9998   1
1208.187   1.6435   1.0722   0.9999   1
1208.217   1.4199   1.0418   0.9999   1
1208.246   1.0979   0.9931   0.9999   1
1208.276   1.2332   1.0226   0.9999   1
1208.306   1.8945   1.1326   0.9999   1
1208.336   2.1111   1.1569   0.9999   1
1208.366   1.4117   0.9963   0.9999   1
1208.396   1.2650   1.0324   0.9999   1
1208.426   1.3346   1.0256   0.9999   1
1208.456   1.0709   1.0175   0.9999   1
1208.485   1.2748   1.0667   0.9999   1
1208.515   1.5305   1.0900   1.0000   1
1208.545   1.0808   0.9966   1.0000   1
1208.575   0.6411   0.8418   1.0000   1
1208.605   0.9633   0.9988   1.0000   1
1208.635   0.9801   0.9954   1.0000   1
1208.665   2.0836   1.2400   1.0000   1
1208.695   0.8075   0.9346   1.0000   1
1208.724   2.1441   1.1759   1.0000   1
1208.754   2.0355   1.1460   1.0000   1
1208.784   0.5215   0.8479   1.0000   1
1208.814   0.9979   0.9926   1.0000   1
1208.844   0.8645   0.9655   1.0000   1
1208.874   1.0790   1.0382   1.0000   1
1208.904   1.0599   0.9964   1.0000   1
1208.934   1.5364   1.1762   1.0000   1
1208.963   1.1520   1.0839   1.0000   1
1208.993   1.5539   1.1785   1.0000   1
1209.023   1.4166   1.1163   1.0000   1
1209.053   2.1276   1.2958   1.0000   1
1209.083   0.9686   1.0420   1.0000   1
1209.113   0.9729   1.0289   1.0000   1
1209.143   1.6187   1.1034   1.0000   1
1209.172   0.9183   1.0092   1.0000   1
1209.202   1.0109   1.0192   1.0000   1
1209.232   1.0307   1.0571   1.0000   1
1209.262   1.7791   1.1595   1.0000   1
1209.292   1.2363   1.0835   1.0000   1
1209.322   1.5643   1.2249   1.0000   1
1209.352   0.8599   1.0325   1.0000   1
1209.382   1.2815   1.0912   1.0000   1
1209.411   1.0961   1.0162   1.0000   1
1209.441   0.8430   1.0581   1.0000   1
1209.471   0.9895   1.0341   1.0000   1
1209.501   1.5004   1.2183   1.0000   1
1209.531   1.5480   1.1992   1.0000   1
1209.561   1.3420   1.1186   1.0000   1
1209.591   1.2690   1.1443   1.0000   1
1209.621   1.0611   1.0847   1.0000   1
1209.650   0.5775   0.9047   1.0000   1
1209.680   0.5206   0.9386   1.0000   1
1209.710   0.6187   0.9729   1.0000   1
1209.740   0.8724   0.9579   1.0000   1
1209.770   0.7226   1.0092   1.0000   1
1209.800   0.8730   1.0564   1.0000   1
1209.830   0.7614   1.0370   1.0000   1
1209.860   0.6625   1.0037   1.0000   1
1209.889   0.9469   1.1253   1.0000   1
1209.919   0.2657   0.9020   1.0000   1
1209.949   -0.0372   0.7961   1.0000   1
1209.979   0.3571   0.9528   1.0000   1
1210.009   0.5609   0.9761   1.0000   1
1210.039   0.1385   0.8785   1.0000   1
1210.069   0.1487   0.8653   1.0000   1
1210.099   1.0682   1.1334   1.0000   1
1210.128   0.8386   1.0957   1.0000   1
1210.158   0.9454   1.1701   1.0000   1
1210.188   0.5290   1.0403   1.0000   1
1210.218   0.8558   1.1491   1.0000   1
1210.248   0.5391   1.0179   1.0000   1
1210.278   0.7611   1.0884   1.0000   1
1210.308   0.7188   1.0543   1.0000   1
1210.338   1.0132   1.1405   1.0000   1
1210.367   0.9867   1.2242   1.0000   1
1210.397   1.7228   1.3889   1.0000   1
1210.427   0.9814   1.1895   1.0000   1
1210.457   0.6340   1.0808   1.0000   1
1210.487   0.8574   1.1472   1.0000   1
1210.517   1.1359   1.3062   1.0000   1
