# Best-fit normalized data and profile from VoigtFit
# column 1 : Wavelength
# column 2 : Normalized flux
# column 3 : Normalized error
# column 4 : Best-fit profile
# column 5 : Pixel mask, 1=included, 0=excluded
1202.481   0.7723   0.5747   1.0000   1
1202.511   0.8266   0.5586   1.0000   1
1202.541   1.0755   0.6333   1.0000   1
1202.571   0.8690   0.5920   1.0000   1
1202.601   0.7293   0.5505   1.0000   1
1202.630   0.9920   0.5971   1.0000   1
1202.660   1.2734   0.6753   1.0000   1
1202.690   1.2129   0.6336   1.0000   1
1202.720   1.0829   0.6110   1.0000   1
1202.750   0.6358   0.5458   1.0000   1
1202.780   0.9579   0.6298   1.0000   1
1202.810   0.9069   0.6089   1.0000   1
1202.840   1.1920   0.6722   1.0000   1
1202.869   0.6220   0.5622   1.0000   1
1202.899   0.9894   0.6400   1.0000   1
1202.929   1.1627   0.6771   1.0000   1
1202.959   0.6626   0.5722   1.0000   1
1202.989   1.1495   0.6901   1.0000   1
1203.019   0.9365   0.6281   1.0000   1
1203.049   1.4361   0.7369   1.0000   1
1203.078   0.6886   0.5693   1.0000   1
1203.108   0.7789   0.6147   1.0000   1
1203.138   0.8417   0.6171   1.0000   1
1203.168   0.7786   0.6068   1.0000   1
1203.198   1.1393   0.6910   1.0000   1
1203.228   1.1687   0.6969   1.0000   1
1203.258   1.0629   0.6760   1.0000   1
1203.288   0.8570   0.6191   1.0000   1
1203.317   1.6437   0.7747   1.0000   1
1203.347   0.9618   0.6355   1.0000   1
1203.377   1.0770   0.6517   1.0000   1
1203.407   0.9864   0.6556   1.0000   1
1203.437   0.8693   0.6232   1.0000   1
1203.467   0.8422   0.6256   1.0000   1
1203.497   0.4978   0.5385   1.0000   1
1203.527   1.1928   0.7011   1.0000   1
1203.556   1.2031   0.7080   1.0000   1
1203.586   0.6836   0.5591   1.0000   1
1203.616   0.8084   0.6263   1.0000   1
1203.646   0.9884   0.6379   1.0000   1
1203.676   1.1406   0.6833   1.0000   1
1203.706   1.5773   0.7774   1.0000   1
1203.736   0.9695   0.6209   1.0000   1
1203.766   1.3134   0.7041   1.0000   1
1203.795   1.7076   0.8013   1.0000   1
1203.825   0.9090   0.6556   1.0000   1
1203.855   1.0323   0.6553   1.0000   1
1203.885   1.0353   0.6637   1.0000   1
1203.915   0.7978   0.6377   1.0000   1
1203.945   1.0177   0.6907   1.0000   1
1203.975   0.9528   0.6559   1.0000   1
1204.005   1.3106   0.7324   1.0000   1
1204.034   1.6524   0.7928   1.0000   1
1204.064   0.8848   0.6027   1.0000   1
1204.094   0.9276   0.6696   1.0000   1
1204.124   1.0352   0.6716   1.0000   1
1204.154   1.1810   0.7162   1.0000   1
1204.184   0.7206   0.6306   1.0000   1
1204.214   0.8263   0.6495   1.0000   1
1204.244   0.9765   0.6685   1.0000   1
1204.273   0.8380   0.5976   1.0000   1
1204.303   1.0107   0.6920   1.0000   1
1204.333   0.9853   0.6948   1.0000   1
1204.363   0.8374   0.6692   1.0000   1
1204.393   0.9635   0.6930   1.0000   1
1204.423   1.3503   0.7556   1.0000   1
1204.453   1.1217   0.7177   1.0000   1
1204.483   1.0810   0.7306   1.0000   1
1204.512   1.2064   0.7267   1.0000   1
1204.542   0.6119   0.6134   1.0000   1
1204.572   1.2414   0.7596   1.0000   1
1204.602   1.0121   0.6904   1.0000   1
1204.632   1.2514   0.7419   1.0000   1
1204.662   1.1500   0.7527   1.0000   1
1204.692   0.6339   0.6238   1.0000   1
1204.721   0.9701   0.7153   1.0000   1
1204.751   1.4093   0.7777   1.0000   1
1204.781   1.0899   0.7331   1.0000   1
1204.811   1.3198   0.7582   1.0000   1
1204.841   0.6131   0.6115   1.0000   1
1204.871   1.1762   0.7583   1.0000   1
1204.901   0.6241   0.5788   1.0000   1
1204.931   0.8913   0.7065   1.0000   1
1204.960   0.8342   0.6776   1.0000   1
1204.990   0.9739   0.7254   1.0000   1
1205.020   1.1218   0.7591   1.0000   1
1205.050   1.1318   0.7317   1.0000   1
1205.080   1.3013   0.7923   1.0000   1
1205.110   1.5855   0.8403   1.0000   1
1205.140   1.1435   0.7403   1.0000   1
1205.170   1.4029   0.8138   1.0000   1
1205.199   1.3001   0.7976   1.0000   1
1205.229   0.9391   0.7335   1.0000   1
1205.259   1.6129   0.8572   1.0000   1
1205.289   1.4584   0.8070   0.9999   1
1205.319   0.8138   0.6909   0.9999   1
1205.349   1.2746   0.7856   0.9999   1
1205.379   0.5901   0.6060   0.9999   1
1205.409   1.0809   0.7170   0.9999   1
1205.438   1.5194   0.8228   0.9999   1
1205.468   1.1378   0.7343   0.9999   1
1205.498   1.1466   0.7723   0.9999   1
1205.528   0.8259   0.7120   0.9999   1
1205.558   0.8133   0.7016   0.9999   1
1205.588   0.4824   0.6312   0.9999   1
1205.618   0.9414   0.7389   0.9999   1
1205.648   1.2071   0.7861   0.9998   1
1205.677   1.3736   0.8138   0.9998   1
1205.707   1.1554   0.7914   0.9997   1
1205.737   1.0984   0.8149   0.9996   1
1205.767   1.2548   0.8403   0.9993   1
1205.797   1.3694   0.8554   0.9989   1
1205.827   1.4478   0.8706   0.9983   1
1205.857   1.0428   0.7590   0.9973   1
1205.887   1.2294   0.8438   0.9956   1
1205.916   0.6993   0.7073   0.9932   1
1205.946   1.4836   0.8638   0.9894   1
1205.976   0.7104   0.7023   0.9838   1
1206.006   0.8814   0.7433   0.9756   1
1206.036   1.1292   0.7927   0.9638   1
1206.066   0.6266   0.6979   0.9473   1
1206.096   1.1886   0.8398   0.9248   1
1206.126   1.0482   0.7764   0.8947   1
1206.155   1.0181   0.7763   0.8555   1
1206.185   0.5694   0.6747   0.8061   1
1206.215   0.9214   0.7321   0.7462   1
1206.245   0.4415   0.6361   0.6762   1
1206.275   0.6984   0.7132   0.5975   1
1206.305   0.7027   0.6758   0.5130   1
1206.335   0.3288   0.5692   0.4266   1
1206.364   0.3188   0.6105   0.3427   1
1206.394   0.2036   0.5779   0.2654   1
1206.424   0.3738   0.5941   0.1980   1
1206.454   0.0444   0.5064   0.1427   1
1206.484   0.0322   0.5063   0.0996   1
1206.514   0.2075   0.5719   0.0676   1
1206.544   0.0907   0.5405   0.0449   1
1206.574   0.0412   0.5195   0.0294   1
1206.603   -0.0481   0.4992   0.0194   1
1206.633   0.2578   0.6014   0.0130   1
1206.663   0.2228   0.5804   0.0090   1
1206.693   0.0817   0.5426   0.0065   1
1206.723   0.1640   0.5817   0.0050   1
1206.753   0.0333   0.5368   0.0042   1
1206.783   0.1160   0.5584   0.0039   1
1206.813   0.0316   0.5269   0.0039   1
1206.842   0.0337   0.5308   0.0043   1
1206.872   -0.1431   0.4950   0.0052   1
1206.902   0.1726   0.5786   0.0068   1
1206.932   -0.0140   0.5337   0.0094   1
1206.962   -0.0513   0.5206   0.0138   1
1206.992   -0.0898   0.5135   0.0206   1
1207.022   0.2693   0.6086   0.0313   1
1207.052   0.0955   0.5671   0.0475   1
1207.081   0.0439   0.5611   0.0715   1
1207.111   0.0860   0.5694   0.1051   1
1207.141   0.0987   0.5828   0.1501   1
1207.171   0.0351   0.5654   0.2071   1
1207.201   0.2206   0.5883   0.2758   1
1207.231   0.4450   0.6883   0.3542   1
1207.261   0.3204   0.6283   0.4386   1
1207.291   0.8832   0.8371   0.5244   1
1207.320   0.7204   0.7246   0.6068   1
1207.350   0.5817   0.7348   0.6809   1
1207.380   0.9326   0.8807   0.7417   1
1207.410   0.9628   0.8926   0.7842   1
1207.440   0.6365   0.7829   0.8042   1
1207.470   0.7913   0.7999   0.7985   1
1207.500   0.7083   0.7492   0.7660   1
1207.529   0.5911   0.7597   0.7101   1
1207.559   0.4394   0.7247   0.6390   1
1207.589   1.4354   0.9922   0.5650   1
1207.619   0.3051   0.6724   0.4996   1
1207.649   0.5565   0.7816   0.4523   1
1207.679   0.6668   0.8155   0.4284   1
1207.709   0.2622   0.6329   0.4317   1
1207.739   0.5666   0.8032   0.4616   1
1207.768   0.5566   0.7506   0.5158   1
1207.798   0.5375   0.7760   0.5895   1
1207.828   0.4070   0.7252   0.6745   1
1207.858   0.7473   0.8297   0.7601   1
1207.888   1.1085   0.9600   0.8364   1
1207.918   1.0755   0.9514   0.8970   1
1207.948   0.9565   0.8822   0.9403   1
1207.978   1.5386   1.0131   0.9681   1
1208.007   0.8767   0.8560   0.9842   1
1208.037   1.2089   0.9972   0.9926   1
1208.067   0.8910   0.8677   0.9968   1
1208.097   1.1606   0.9903   0.9987   1
1208.127   0.8972   0.9101   0.9994   1
1208.157   1.1820   1.0185   0.9997   1
1208.187   1.6240   1.0594   0.9999   1
1208.217   1.4030   1.0295   0.9999   1
1208.246   1.0850   0.9814   0.9999   1
1208.276   1.2187   1.0106   0.9999   1
1208.306   1.8725   1.1194   0.9999   1
1208.336   2.0867   1.1434   0.9999   1
1208.366   1.3954   0.9848   0.9999   1
1208.396   1.2505   1.0206   0.9999   1
1208.426   1.3194   1.0140   0.9999   1
1208.456   1.0588   1.0061   0.9999   1
1208.485   1.2606   1.0548   0.9999   1
1208.515   1.5135   1.0779   1.0000   1
1208.545   1.0689   0.9856   1.0000   1
1208.575   0.6341   0.8326   1.0000   1
1208.605   0.9529   0.9880   1.0000   1
1208.635   0.9696   0.9847   1.0000   1
1208.665   2.0616   1.2268   1.0000   1
1208.695   0.7991   0.9248   1.0000   1
1208.724   2.1220   1.1637   1.0000   1
1208.754   2.0147   1.1343   1.0000   1
1208.784   0.5162   0.8393   1.0000   1
1208.814   0.9879   0.9828   1.0000   1
1208.844   0.8560   0.9560   1.0000   1
1208.874   1.0686   1.0281   1.0000   1
1208.904   1.0498   0.9869   1.0000   1
1208.934   1.5219   1.1651   1.0000   1
1208.963   1.1413   1.0739   1.0000   1
1208.993   1.5398   1.1678   1.0000   1
1209.023   1.4040   1.1064   1.0000   1
1209.053   2.1090   1.2844   1.0000   1
1209.083   0.9604   1.0331   1.0000   1
1209.113   0.9648   1.0203   1.0000   1
1209.143   1.6055   1.0943   1.0000   1
1209.172   0.9110   1.0011   1.0000   1
1209.202   1.0030   1.0113   1.0000   1
1209.232   1.0229   1.0491   1.0000   1
1209.262   1.7659   1.1510   1.0000   1
1209.292   1.2274   1.0757   1.0000   1
1209.322   1.5534   1.2164   1.0000   1
1209.352   0.8541   1.0255   1.0000   1
1209.382   1.2732   1.0840   1.0000   1
1209.411   1.0892   1.0098   1.0000   1
1209.441   0.8379   1.0517   1.0000   1
1209.471   0.9837   1.0281   1.0000   1
1209.501   1.4921   1.2115   1.0000   1
1209.531   1.5398   1.1928   1.0000   1
1209.561   1.3352   1.1129   1.0000   1
1209.591   1.2629   1.1388   1.0000   1
1209.621   1.0564   1.0798   1.0000   1
1209.650   0.5750   0.9009   1.0000   1
1209.680   0.5186   0.9350   1.0000   1
1209.710   0.6165   0.9694   1.0000   1
1209.740   0.8695   0.9548   1.0000   1
1209.770   0.7204   1.0062   1.0000   1
1209.800   0.8707   1.0536   1.0000   1
1209.830   0.7596   1.0346   1.0000   1
1209.860   0.6611   1.0016   1.0000   1
1209.889   0.9453   1.1233   1.0000   1
1209.919   0.2653   0.9008   1.0000   1
1209.949   -0.0372   0.7953   1.0000   1
1209.979   0.3569   0.9521   1.0000   1
1210.009   0.5608   0.9758   1.0000   1
1210.039   0.1386   0.8786   1.0000   1
1210.069   0.1488   0.8657   1.0000   1
1210.099   1.0691   1.1343   1.0000   1
1210.128   0.8396   1.0971   1.0000   1
1210.158   0.9469   1.1720   1.0000   1
1210.188   0.5301   1.0425   1.0000   1
1210.218   0.8579   1.1520   1.0000   1
1210.248   0.5407   1.0209   1.0000   1
1210.278   0.7636   1.0921   1.0000   1
1210.308   0.7215   1.0583   1.0000   1
1210.338   1.0176   1.1454   1.0000   1
1210.367   0.9914   1.2300   1.0000   1
1210.397   1.7317   1.3961   1.0000   1
1210.427   0.9870   1.1962   1.0000   1
1210.457   0.6379   1.0874   1.0000   1
1210.487   0.8632   1.1548   1.0000   1
1210.517   1.1441   1.3156   1.0000   1
