# Best-fit normalized data and profile from VoigtFit
# column 1 : Wavelength
# column 2 : Normalized flux
# column 3 : Normalized error
# column 4 : Best-fit profile
# column 5 : Pixel mask, 1=included, 0=excluded
1202.499   0.8969   0.1628   1.0000   1
1202.529   0.7764   0.1537   1.0000   1
1202.559   0.9234   0.1647   1.0000   1
1202.589   1.0850   0.1760   1.0000   1
1202.618   0.8500   0.1575   1.0000   1
1202.648   0.9874   0.1668   1.0000   1
1202.678   0.9418   0.1633   1.0000   1
1202.708   0.8688   0.1582   1.0000   1
1202.738   0.9354   0.1630   1.0000   1
1202.768   0.9597   0.1646   1.0000   1
1202.798   0.9992   0.1678   1.0000   1
1202.828   1.0899   0.1745   1.0000   1
1202.858   0.9573   0.1654   1.0000   1
1202.887   1.1584   0.1794   1.0000   1
1202.917   0.9684   0.1661   1.0000   1
1202.947   0.9138   0.1624   1.0000   1
1202.977   0.9224   0.1629   1.0000   1
1203.007   1.0846   0.1754   1.0000   1
1203.037   0.8967   0.1611   1.0000   1
1203.067   0.9686   0.1668   1.0000   1
1203.097   0.8832   0.1602   1.0000   1
1203.127   0.9453   0.1657   1.0000   1
1203.156   0.9151   0.1634   1.0000   1
1203.186   0.8731   0.1608   1.0000   1
1203.216   1.0768   0.1760   1.0000   1
1203.246   0.8689   0.1609   1.0000   1
1203.276   1.0264   0.1728   1.0000   1
1203.306   0.8977   0.1632   1.0000   1
1203.336   1.1488   0.1810   1.0000   1
1203.366   0.9477   0.1672   1.0000   1
1203.396   0.9695   0.1686   1.0000   1
1203.426   0.9105   0.1648   1.0000   1
1203.455   0.9232   0.1653   1.0000   1
1203.485   1.1301   0.1811   1.0000   1
1203.515   0.9702   0.1695   1.0000   1
1203.545   1.0529   0.1758   1.0000   1
1203.575   0.8564   0.1613   1.0000   1
1203.605   0.9755   0.1704   1.0000   1
1203.635   0.9945   0.1718   1.0000   1
1203.665   0.9218   0.1671   1.0000   1
1203.695   1.0551   0.1772   1.0000   1
1203.724   1.0075   0.1735   1.0000   1
1203.754   0.9648   0.1706   1.0000   1
1203.784   1.0768   0.1788   1.0000   1
1203.814   0.9813   0.1721   1.0000   1
1203.844   1.0026   0.1742   1.0000   1
1203.874   0.9438   0.1690   1.0000   1
1203.904   0.9048   0.1664   1.0000   1
1203.934   0.8282   0.1606   1.0000   1
1203.964   1.0756   0.1802   1.0000   1
1203.993   1.1537   0.1860   1.0000   1
1204.023   1.0785   0.1805   1.0000   1
1204.053   0.9169   0.1687   1.0000   1
1204.083   1.1861   0.1878   1.0000   1
1204.113   1.0836   0.1815   1.0000   1
1204.143   1.1883   0.1892   1.0000   1
1204.173   1.0292   0.1773   1.0000   1
1204.203   1.1535   0.1868   1.0000   1
1204.233   0.9614   0.1731   1.0000   1
1204.262   0.9810   0.1741   1.0000   1
1204.292   1.0128   0.1771   1.0000   1
1204.322   0.8481   0.1648   1.0000   1
1204.352   1.0253   0.1781   1.0000   1
1204.382   1.0411   0.1800   1.0000   1
1204.412   1.0463   0.1809   1.0000   1
1204.442   0.9330   0.1723   1.0000   1
1204.472   1.1558   0.1887   1.0000   1
1204.502   0.7977   0.1609   1.0000   1
1204.532   1.1169   0.1861   1.0000   1
1204.561   0.9695   0.1752   1.0000   1
1204.591   1.0790   0.1832   1.0000   1
1204.621   0.9454   0.1739   1.0000   1
1204.651   1.0112   0.1784   1.0000   1
1204.681   1.0020   0.1777   1.0000   1
1204.711   1.0705   0.1838   1.0000   1
1204.741   1.2301   0.1953   1.0000   1
1204.771   1.0083   0.1796   1.0000   1
1204.801   0.9996   0.1796   1.0000   1
1204.830   0.9530   0.1760   1.0000   1
1204.860   0.9696   0.1773   1.0000   1
1204.890   1.0651   0.1847   1.0000   1
1204.920   1.2739   0.1999   1.0000   1
1204.950   0.9380   0.1753   1.0000   1
1204.980   0.8742   0.1708   1.0000   1
1205.010   1.1334   0.1908   1.0000   1
1205.040   1.0590   0.1858   1.0000   1
1205.070   1.1694   0.1939   1.0000   1
1205.099   1.1636   0.1932   1.0000   1
1205.129   1.0388   0.1850   1.0000   1
1205.159   0.9277   0.1761   1.0000   1
1205.189   0.9904   0.1813   1.0000   1
1205.219   1.1165   0.1908   1.0000   1
1205.249   0.8997   0.1738   1.0000   1
1205.279   1.0985   0.1903   1.0000   1
1205.309   1.0497   0.1864   1.0000   1
1205.339   1.0020   0.1829   1.0000   1
1205.368   0.9763   0.1808   0.9999   1
1205.398   0.8966   0.1756   0.9999   1
1205.428   0.9079   0.1766   0.9999   1
1205.458   0.9058   0.1763   0.9999   1
1205.488   1.0390   0.1873   0.9999   1
1205.518   1.0202   0.1854   0.9999   1
1205.548   1.0982   0.1923   0.9999   1
1205.578   1.1507   0.1965   0.9999   1
1205.608   1.0939   0.1925   0.9999   1
1205.637   1.1450   0.1961   0.9999   1
1205.667   1.1157   0.1944   0.9999   1
1205.697   1.1130   0.1943   0.9999   1
1205.727   1.1535   0.1968   0.9998   1
1205.757   1.1933   0.2007   0.9997   1
1205.787   1.1112   0.1940   0.9995   1
1205.817   1.0877   0.1919   0.9992   1
1205.847   1.0158   0.1875   0.9985   1
1205.877   1.1383   0.1977   0.9975   1
1205.907   1.2240   0.2039   0.9957   1
1205.936   1.0883   0.1937   0.9927   1
1205.966   1.1863   0.2018   0.9878   1
1205.996   1.0047   0.1874   0.9802   1
1206.026   1.1171   0.1970   0.9684   1
1206.056   1.1742   0.2001   0.9509   1
1206.086   0.8999   0.1798   0.9253   1
1206.116   1.0296   0.1909   0.8897   1
1206.146   1.1356   0.1985   0.8419   1
1206.176   0.9960   0.1883   0.7807   1
1206.205   0.8615   0.1775   0.7057   1
1206.235   0.8063   0.1730   0.6182   1
1206.265   0.6666   0.1597   0.5225   1
1206.295   0.4231   0.1341   0.4243   1
1206.325   0.2912   0.1144   0.3297   1
1206.355   0.1797   0.0990   0.2447   1
1206.385   0.0953   0.0801   0.1740   1
1206.415   0.0574   0.0711   0.1190   1
1206.445   0.0266   0.0581   0.0787   1
1206.474   0.0136   0.0547   0.0509   1
1206.504   0.0486   0.0620   0.0326   1
1206.534   0.0444   0.0641   0.0213   1
1206.564   0.0266   0.0601   0.0145   1
1206.594   0.0139   0.0558   0.0105   1
1206.624   0.0136   0.0565   0.0082   1
1206.654   0.0185   0.0570   0.0072   1
1206.684   0.0003   0.0520   0.0071   1
1206.714   0.0241   0.0591   0.0079   1
1206.743   0.0208   0.0602   0.0098   1
1206.773   0.0631   0.0679   0.0134   1
1206.803   0.0089   0.0549   0.0194   1
1206.833   0.0848   0.0789   0.0295   1
1206.863   0.1062   0.0814   0.0460   1
1206.893   0.1569   0.0954   0.0713   1
1206.923   0.2547   0.1146   0.1085   1
1206.953   0.2613   0.1152   0.1601   1
1206.983   0.2805   0.1187   0.2272   1
1207.012   0.3669   0.1275   0.3091   1
1207.042   0.4851   0.1461   0.4020   1
1207.072   0.4992   0.1471   0.5000   1
1207.102   0.4219   0.1391   0.5968   1
1207.132   0.4797   0.1465   0.6865   1
1207.162   0.5617   0.1549   0.7647   1
1207.192   0.7378   0.1713   0.8292   1
1207.222   0.8634   0.1856   0.8799   1
1207.252   0.9242   0.1902   0.9181   1
1207.282   0.9080   0.1895   0.9457   1
1207.311   0.7362   0.1728   0.9650   1
1207.341   1.0008   0.1981   0.9779   1
1207.371   0.9672   0.1960   0.9863   1
1207.401   0.9228   0.1915   0.9917   1
1207.431   1.0536   0.2031   0.9951   1
1207.461   0.9079   0.1915   0.9971   1
1207.491   1.2157   0.2159   0.9982   1
1207.521   1.0054   0.2002   0.9978   1
1207.551   0.9902   0.1982   0.9903   1
1207.580   0.9392   0.1953   0.9541   1
1207.610   0.8664   0.1880   0.8535   1
1207.640   0.6426   0.1671   0.6925   1
1207.670   0.6801   0.1699   0.5777   1
1207.700   0.5232   0.1543   0.6118   1
1207.730   0.8395   0.1873   0.7616   1
1207.760   0.8558   0.1891   0.9050   1
1207.790   1.1243   0.2121   0.9762   1
1207.820   0.8798   0.1921   0.9959   1
1207.849   1.0611   0.2076   0.9994   1
1207.879   0.9397   0.1968   0.9999   1
1207.909   0.9510   0.1987   0.9999   1
1207.939   0.9333   0.1966   0.9999   1
1207.969   0.9848   0.2024   0.9999   1
1207.999   0.9783   0.2014   0.9999   1
1208.029   1.0757   0.2093   0.9999   1
1208.059   0.9506   0.1996   0.9999   1
1208.089   1.1944   0.2206   0.9999   1
1208.118   1.1476   0.2168   0.9999   1
1208.148   1.1233   0.2156   1.0000   1
1208.178   0.9548   0.2020   1.0000   1
1208.208   0.9550   0.2019   1.0000   1
1208.238   1.0797   0.2134   1.0000   1
1208.268   1.0701   0.2129   1.0000   1
1208.298   0.9499   0.2047   1.0000   1
1208.328   0.9597   0.2063   1.0000   1
1208.358   1.0184   0.2144   1.0000   1
1208.388   0.9909   0.2136   1.0000   1
1208.417   1.0044   0.2137   1.0000   1
1208.447   0.9653   0.2104   1.0000   1
1208.477   1.0364   0.2168   1.0000   1
1208.507   1.2257   0.2337   1.0000   1
1208.537   1.2328   0.2341   1.0000   1
1208.567   0.8931   0.2049   1.0000   1
1208.597   1.1257   0.2262   1.0000   1
1208.627   0.9853   0.2159   1.0000   1
1208.657   1.0349   0.2197   1.0000   1
1208.686   1.0161   0.2193   1.0000   1
1208.716   0.9782   0.2138   1.0000   1
1208.746   1.1024   0.2225   1.0000   1
1208.776   1.0572   0.2165   1.0000   1
1208.806   0.9965   0.2111   1.0000   1
1208.836   1.2013   0.2280   1.0000   1
1208.866   1.0644   0.2179   1.0000   1
1208.896   0.9957   0.2123   1.0000   1
1208.926   0.9549   0.2091   1.0000   1
1208.955   1.1725   0.2284   1.0000   1
1208.985   1.0365   0.2146   1.0000   1
1209.015   0.9985   0.2139   1.0000   1
1209.045   1.0126   0.2153   1.0000   1
1209.075   1.0777   0.2202   1.0000   1
1209.105   0.8844   0.2043   1.0000   1
1209.135   0.9375   0.2082   1.0000   1
1209.165   1.1307   0.2271   1.0000   1
1209.195   0.9549   0.2111   1.0000   1
1209.224   1.1770   0.2320   1.0000   1
1209.254   1.0439   0.2209   1.0000   1
1209.284   0.9975   0.2171   1.0000   1
1209.314   1.0908   0.2253   1.0000   1
1209.344   0.7925   0.1981   1.0000   1
1209.374   1.0732   0.2237   1.0000   1
1209.404   1.1172   0.2284   1.0000   1
1209.434   1.1316   0.2288   1.0000   1
1209.464   0.9203   0.2120   1.0000   1
1209.493   1.2756   0.2428   1.0000   1
1209.523   1.0028   0.2204   1.0000   1
1209.553   1.0775   0.2263   1.0000   1
1209.583   1.0490   0.2243   1.0000   1
1209.613   1.0398   0.2233   1.0000   1
1209.643   0.8269   0.2033   1.0000   1
1209.673   0.7946   0.2018   1.0000   1
1209.703   0.8007   0.2025   1.0000   1
1209.733   0.7542   0.1988   1.0000   1
1209.763   0.9587   0.2194   1.0000   1
1209.792   0.8987   0.2130   1.0000   1
1209.822   1.0191   0.2234   1.0000   1
1209.852   0.8517   0.2087   1.0000   1
1209.882   0.9275   0.2172   1.0000   1
1209.912   0.9426   0.2186   1.0000   1
1209.942   0.7909   0.2030   1.0000   1
1209.972   1.3527   0.2550   1.0000   1
1210.002   1.0146   0.2257   1.0000   1
1210.032   1.0190   0.2270   1.0000   1
1210.061   1.0176   0.2277   1.0000   1
1210.091   0.8432   0.2107   1.0000   1
1210.121   1.0358   0.2305   1.0000   1
1210.151   0.9217   0.2192   1.0000   1
1210.181   1.0320   0.2303   1.0000   1
1210.211   0.9146   0.2195   1.0000   1
1210.241   1.0531   0.2328   1.0000   1
1210.271   0.8897   0.2185   1.0000   1
1210.301   1.1071   0.2389   1.0000   1
1210.330   0.8664   0.2149   1.0000   1
1210.360   0.7448   0.2045   1.0000   1
1210.390   1.0314   0.2334   1.0000   1
1210.420   0.9169   0.2218   1.0000   1
1210.450   0.7284   0.2042   1.0000   1
1210.480   0.8757   0.2120   1.0000   1
1210.510   0.8878   0.2226   1.0000   1
