# Best-fit normalized data and profile from VoigtFit
# column 1 : Wavelength
# column 2 : Normalized flux
# column 3 : Normalized error
# column 4 : Best-fit profile
# column 5 : Pixel mask, 1=included, 0=excluded
1543.057   0.9402   0.2772   1.0000   1
1543.094   0.9026   0.2706   1.0000   1
1543.131   0.9738   0.2782   1.0000   1
1543.167   1.1813   0.3030   1.0000   1
1543.204   0.9421   0.2775   1.0000   1
1543.241   0.7457   0.2406   1.0000   1
1543.277   1.1049   0.2960   1.0000   1
1543.314   0.9642   0.2766   1.0000   1
1543.351   1.1804   0.3047   1.0000   1
1543.387   0.8230   0.2593   1.0000   1
1543.424   1.0598   0.2852   1.0000   1
1543.461   0.9703   0.2775   1.0000   1
1543.498   1.1817   0.3047   1.0000   1
1543.534   1.1763   0.3028   1.0000   1
1543.571   1.0412   0.2841   1.0000   1
1543.608   0.8282   0.2494   1.0000   1
1543.644   0.9144   0.2753   1.0000   1
1543.681   0.9600   0.2765   1.0000   1
1543.718   0.9263   0.2756   1.0000   1
1543.755   0.8753   0.2671   1.0000   1
1543.791   0.8955   0.2693   1.0000   1
1543.828   1.0759   0.2917   1.0000   1
1543.865   0.7876   0.2534   1.0000   1
1543.901   1.1104   0.2769   1.0000   1
1543.938   0.8865   0.2679   1.0000   1
1543.975   0.8878   0.2592   1.0000   1
1544.012   0.9381   0.2742   1.0000   1
1544.048   0.9123   0.2704   1.0000   1
1544.085   1.1000   0.2955   1.0000   1
1544.122   1.0525   0.2854   1.0000   1
1544.158   1.0823   0.2924   1.0000   1
1544.195   1.0253   0.2853   1.0000   1
1544.232   1.0192   0.2825   1.0000   1
1544.269   0.8791   0.2517   1.0000   1
1544.305   0.9512   0.2784   1.0000   1
1544.342   1.1466   0.2991   1.0000   1
1544.379   0.8055   0.2612   1.0000   1
1544.415   0.8430   0.2656   1.0000   1
1544.452   1.0738   0.2868   1.0000   1
1544.489   1.2459   0.3102   1.0000   1
1544.525   1.2147   0.3066   1.0000   1
1544.562   0.9066   0.2705   1.0000   1
1544.599   1.2134   0.3031   1.0000   1
1544.636   1.0245   0.2847   1.0000   1
1544.672   0.9131   0.2667   1.0000   1
1544.709   1.0824   0.2756   1.0000   1
1544.746   1.2446   0.3084   1.0000   1
1544.782   1.1534   0.2996   1.0000   1
1544.819   1.0402   0.2840   1.0000   1
1544.856   1.1472   0.2913   1.0000   1
1544.893   1.1232   0.2971   1.0000   1
1544.929   0.9522   0.2763   1.0000   1
1544.966   1.0822   0.2910   1.0000   1
1545.003   0.9211   0.2703   1.0000   1
1545.039   1.0708   0.2914   1.0000   1
1545.076   1.0227   0.2855   1.0000   1
1545.113   1.1746   0.2981   1.0000   1
1545.150   0.9021   0.2732   1.0000   1
1545.186   0.9809   0.2804   1.0000   1
1545.223   0.8377   0.2484   1.0000   1
1545.260   1.0186   0.2805   1.0000   1
1545.296   1.2944   0.3125   1.0000   1
1545.333   0.8844   0.2669   1.0000   1
1545.370   1.2251   0.3066   1.0000   1
1545.407   1.1364   0.2971   1.0000   1
1545.443   1.1128   0.2919   1.0000   1
1545.480   0.8729   0.2678   1.0000   1
1545.517   0.9835   0.2801   1.0000   1
1545.553   0.9611   0.2764   1.0000   1
1545.590   1.0971   0.2918   1.0000   1
1545.627   1.1368   0.2969   1.0000   1
1545.663   0.7994   0.2557   1.0000   1
1545.700   1.1061   0.2925   1.0000   1
1545.737   0.8335   0.2613   1.0000   1
1545.774   1.2313   0.3063   1.0000   1
1545.810   0.9536   0.2737   1.0000   1
1545.847   1.1377   0.2982   1.0000   1
1545.884   1.2096   0.3035   1.0000   1
1545.920   1.2803   0.3111   1.0000   1
1545.957   0.7024   0.2452   1.0000   1
1545.994   1.1933   0.3009   1.0000   1
1546.031   0.8571   0.2675   1.0000   1
1546.067   0.9957   0.2798   1.0000   1
1546.104   1.0919   0.2892   1.0000   1
1546.141   1.0417   0.2876   1.0000   1
1546.177   1.1704   0.2953   1.0000   1
1546.214   1.0916   0.2916   1.0000   1
1546.251   0.8784   0.2554   1.0000   1
1546.288   1.0587   0.2835   1.0000   1
1546.324   1.0666   0.2898   1.0000   1
1546.361   0.9457   0.2680   1.0000   1
1546.398   0.9784   0.2796   1.0000   1
1546.434   1.0621   0.2862   1.0000   1
1546.471   1.0192   0.2888   1.0000   1
1546.508   1.2003   0.3180   1.0000   1
1546.545   0.9761   0.2850   1.0000   1
1546.581   1.3160   0.3258   1.0000   1
1546.618   1.1893   0.3123   1.0000   1
1546.655   1.2127   0.3146   1.0000   1
1546.691   0.8056   0.2636   1.0000   1
1546.728   0.9988   0.2866   1.0000   1
1546.765   0.8435   0.2607   1.0000   1
1546.801   0.9065   0.2795   1.0000   1
1546.838   0.9123   0.2848   1.0000   1
1546.875   1.0400   0.2957   1.0000   1
1546.912   1.0246   0.2759   1.0000   1
1546.948   0.8658   0.2663   1.0000   1
1546.985   1.0489   0.2881   1.0000   1
1547.022   1.0571   0.2868   1.0000   1
1547.058   0.8113   0.2550   1.0000   1
1547.095   1.1494   0.2964   1.0000   1
1547.132   0.9102   0.2723   1.0000   1
1547.169   0.8773   0.2673   0.9999   1
1547.205   1.1221   0.2909   0.9999   1
1547.242   0.9193   0.2686   0.9998   1
1547.279   0.9010   0.2704   0.9997   1
1547.315   1.2137   0.3030   0.9995   1
1547.352   0.8071   0.2558   0.9991   1
1547.389   0.8192   0.2456   0.9985   1
1547.426   1.0891   0.2619   0.9975   1
1547.462   0.9054   0.2673   0.9961   1
1547.499   0.8755   0.2681   0.9939   1
1547.536   1.1152   0.2931   0.9907   1
1547.572   0.9383   0.2749   0.9861   1
1547.609   0.8734   0.2624   0.9796   1
1547.646   1.0276   0.2835   0.9707   1
1547.683   0.9605   0.2759   0.9588   1
1547.719   0.9089   0.2716   0.9431   1
1547.756   0.9821   0.2759   0.9233   1
1547.793   0.6891   0.2291   0.8988   1
1547.829   0.9366   0.2687   0.8693   1
1547.866   1.0503   0.2865   0.8351   1
1547.903   0.7828   0.2530   0.7965   1
1547.939   0.8342   0.2622   0.7542   1
1547.976   0.7951   0.2573   0.7097   1
1548.013   0.5490   0.2114   0.6642   1
1548.050   0.4870   0.2061   0.6195   1
1548.086   0.4978   0.2049   0.5769   1
1548.123   0.5583   0.2242   0.5380   1
1548.160   0.6063   0.2194   0.5039   1
1548.196   0.4647   0.2017   0.4755   1
1548.233   0.5740   0.2160   0.4534   1
1548.270   0.3569   0.1851   0.4381   1
1548.307   0.4662   0.2113   0.4296   1
1548.343   0.5619   0.2227   0.4282   1
1548.380   0.4988   0.2059   0.4340   1
1548.417   0.3259   0.1647   0.4465   1
1548.453   0.4562   0.2078   0.4661   1
1548.490   0.6182   0.2336   0.4921   1
1548.527   0.4892   0.2054   0.5239   1
1548.564   0.5627   0.2239   0.5611   1
1548.600   0.6935   0.2420   0.6024   1
1548.637   0.6478   0.2357   0.6465   1
1548.674   0.5883   0.2200   0.6919   1
1548.710   0.7732   0.2507   0.7369   1
1548.747   0.6301   0.2310   0.7802   1
1548.784   0.9630   0.2760   0.8202   1
1548.821   1.1010   0.2847   0.8562   1
1548.857   0.8706   0.2648   0.8873   1
1548.894   0.9811   0.2809   0.9131   1
1548.931   1.4430   0.3336   0.9338   1
1548.967   1.0086   0.2913   0.9494   1
1549.004   0.8648   0.2736   0.9599   1
1549.041   0.7356   0.2513   0.9655   1
1549.077   1.2481   0.3182   0.9663   1
1549.114   0.7269   0.2539   0.9617   1
1549.151   1.0303   0.2781   0.9518   1
1549.188   0.9181   0.2791   0.9364   1
1549.224   1.0730   0.2999   0.9150   1
1549.261   0.6559   0.2411   0.8885   1
1549.298   0.8983   0.2743   0.8577   1
1549.334   0.7789   0.2598   0.8238   1
1549.371   0.8485   0.2707   0.7892   1
1549.408   0.8747   0.2690   0.7559   1
1549.445   1.0390   0.2858   0.7264   1
1549.481   0.8118   0.2469   0.7026   1
1549.518   0.5846   0.2266   0.6861   1
1549.555   0.6579   0.2281   0.6785   1
1549.591   0.5245   0.2182   0.6797   1
1549.628   0.6919   0.2416   0.6899   1
1549.665   0.7781   0.2307   0.7086   1
1549.702   0.9261   0.2680   0.7342   1
1549.738   0.7494   0.2507   0.7651   1
1549.775   0.8419   0.2617   0.7992   1
1549.812   0.6894   0.2429   0.8341   1
1549.848   0.7354   0.2465   0.8676   1
1549.885   1.0967   0.2761   0.8981   1
1549.922   0.9056   0.2395   0.9243   1
1549.959   0.8911   0.2677   0.9456   1
1549.995   1.2637   0.3032   0.9620   1
1550.032   0.9055   0.2683   0.9739   1
1550.069   1.2031   0.3014   0.9818   1
1550.105   1.0975   0.2752   0.9864   1
1550.142   1.2047   0.2968   0.9883   1
1550.179   1.1957   0.2969   0.9879   1
1550.215   1.0823   0.2878   0.9853   1
1550.252   0.9377   0.2697   0.9808   1
1550.289   0.9181   0.2677   0.9740   1
1550.326   1.1203   0.2925   0.9649   1
1550.362   0.8745   0.2649   0.9533   1
1550.399   0.7703   0.2475   0.9388   1
1550.436   1.2490   0.3042   0.9214   1
1550.472   0.9323   0.2698   0.9012   1
1550.509   0.7913   0.2553   0.8782   1
1550.546   0.8254   0.2604   0.8529   1
1550.583   0.8011   0.2457   0.8260   1
1550.619   0.6051   0.2252   0.7981   1
1550.656   0.8001   0.2559   0.7704   1
1550.693   0.8041   0.2442   0.7437   1
1550.729   0.8541   0.2599   0.7190   1
1550.766   0.8144   0.2543   0.6974   1
1550.803   0.8312   0.2596   0.6795   1
1550.840   0.7251   0.2330   0.6661   1
1550.876   0.5914   0.2268   0.6576   1
1550.913   0.8159   0.2555   0.6543   1
1550.950   0.6118   0.2216   0.6563   1
1550.986   0.5863   0.2253   0.6637   1
1551.023   0.6384   0.2357   0.6759   1
1551.060   0.6519   0.2371   0.6928   1
1551.097   0.7505   0.2470   0.7136   1
1551.133   0.5554   0.2122   0.7376   1
1551.170   0.6920   0.2430   0.7639   1
1551.207   0.7962   0.2523   0.7915   1
1551.243   0.8251   0.2551   0.8194   1
1551.280   0.7022   0.2427   0.8466   1
1551.317   0.9244   0.2674   0.8723   1
1551.353   0.7939   0.2530   0.8959   1
1551.390   1.0500   0.2845   0.9168   1
1551.427   1.1203   0.2907   0.9348   1
1551.464   0.9599   0.2745   0.9498   1
1551.500   1.0785   0.2885   0.9618   1
1551.537   0.8283   0.2593   0.9710   1
1551.574   1.0810   0.2866   0.9776   1
1551.610   1.2159   0.3009   0.9816   1
1551.647   0.8706   0.2646   0.9831   1
1551.684   0.9413   0.2730   0.9821   1
1551.721   0.7997   0.2555   0.9783   1
1551.757   0.9747   0.2723   0.9716   1
1551.794   0.8321   0.2568   0.9621   1
1551.831   1.1010   0.2891   0.9494   1
1551.867   1.0041   0.2717   0.9339   1
1551.904   1.0046   0.2782   0.9163   1
1551.941   0.9807   0.2757   0.8973   1
1551.978   0.7379   0.2481   0.8781   1
1552.014   0.9167   0.2570   0.8599   1
1552.051   0.6453   0.2133   0.8444   1
1552.088   0.6503   0.2335   0.8325   1
1552.124   0.8802   0.2656   0.8252   1
1552.161   1.1679   0.2907   0.8235   1
1552.198   0.7459   0.2496   0.8271   1
1552.235   0.8915   0.2635   0.8358   1
1552.271   0.9728   0.2748   0.8491   1
1552.308   0.6782   0.2282   0.8657   1
1552.345   0.6861   0.2379   0.8843   1
1552.381   1.1691   0.2942   0.9038   1
1552.418   0.9219   0.2696   0.9226   1
1552.455   1.0258   0.2802   0.9400   1
1552.491   0.9575   0.2712   0.9550   1
1552.528   0.9354   0.2695   0.9675   1
1552.565   0.9288   0.2681   0.9774   1
1552.602   0.8785   0.2654   0.9847   1
1552.638   0.8421   0.2619   0.9901   1
1552.675   0.8742   0.2646   0.9938   1
1552.712   1.0750   0.2902   0.9962   1
1552.748   1.0779   0.2891   0.9978   1
1552.785   0.9801   0.2760   0.9988   1
1552.822   0.9060   0.2747   0.9993   1
1552.859   1.0904   0.2870   0.9996   1
1552.895   1.0285   0.2802   0.9998   1
1552.932   1.1666   0.3013   0.9999   1
1552.969   0.7738   0.2576   1.0000   1
1553.005   1.1907   0.3014   1.0000   1
1553.042   1.1098   0.2907   1.0000   1
1553.079   0.7266   0.2349   1.0000   1
1553.116   1.0671   0.2830   1.0000   1
1553.152   1.1481   0.2903   1.0000   1
1553.189   1.2517   0.3038   1.0000   1
1553.226   1.0789   0.2822   1.0000   1
1553.262   1.0323   0.2776   1.0000   1
1553.299   1.1000   0.2891   1.0000   1
1553.336   1.2413   0.3031   1.0000   1
1553.373   0.8411   0.2606   1.0000   1
1553.409   0.9461   0.2684   1.0000   1
1553.446   1.1173   0.2863   1.0000   1
1553.483   0.9354   0.2663   1.0000   1
1553.519   0.9644   0.2701   1.0000   1
1553.556   1.3352   0.3128   1.0000   1
1553.593   1.2114   0.3003   1.0000   1
1553.629   1.0122   0.2789   1.0000   1
1553.666   1.1932   0.2971   1.0000   1
1553.703   0.9059   0.2679   1.0000   1
1553.740   0.8452   0.2568   1.0000   1
1553.776   0.9928   0.2767   1.0000   1
1553.813   0.9637   0.2748   1.0000   1
1553.850   0.9592   0.2705   1.0000   1
1553.886   0.8124   0.2539   1.0000   1
1553.923   0.8943   0.2486   1.0000   1
1553.960   0.8543   0.2609   1.0000   1
1553.997   1.0141   0.2767   1.0000   1
1554.033   0.7340   0.2424   1.0000   1
1554.070   0.9769   0.2586   1.0000   1
1554.107   1.0540   0.2837   1.0000   1
1554.143   0.9942   0.2776   1.0000   1
1554.180   0.9041   0.2670   1.0000   1
1554.217   0.8989   0.2418   1.0000   1
1554.254   1.1063   0.2862   1.0000   1
1554.290   0.7836   0.2505   1.0000   1
1554.327   0.9967   0.2772   1.0000   1
1554.364   0.9610   0.2650   1.0000   1
1554.400   1.0291   0.2786   1.0000   1
1554.437   1.1807   0.2969   1.0000   1
1554.474   0.9263   0.2535   1.0000   1
1554.511   0.9974   0.2767   1.0000   1
1554.547   1.2070   0.2987   1.0000   1
1554.584   1.0231   0.2746   1.0000   1
1554.621   1.0430   0.2788   1.0000   1
1554.657   0.9885   0.2766   1.0000   1
1554.694   1.0584   0.2793   1.0000   1
1554.731   1.1420   0.2921   1.0000   1
1554.767   0.9704   0.2725   1.0000   1
1554.804   1.0910   0.2693   1.0000   1
1554.841   1.0080   0.2779   1.0000   1
1554.878   0.7845   0.2523   1.0000   1
1554.914   1.1906   0.2977   1.0000   1
1554.951   0.9010   0.2634   1.0000   1
1554.988   0.9638   0.2719   1.0000   1
1555.024   0.9470   0.2643   1.0000   1
1555.061   0.9731   0.2747   1.0000   1
1555.098   1.2187   0.2938   1.0000   1
1555.135   1.0661   0.2845   1.0000   1
1555.171   0.9772   0.2703   1.0000   1
1555.208   0.8925   0.2613   1.0000   1
1555.245   1.1289   0.2862   1.0000   1
1555.281   1.1560   0.2899   1.0000   1
1555.318   1.0299   0.2793   1.0000   1
1555.355   0.9097   0.2670   1.0000   1
1555.392   0.9399   0.2705   1.0000   1
1555.428   0.9273   0.2659   1.0000   1
1555.465   1.1084   0.2847   1.0000   1
1555.502   0.9492   0.2698   1.0000   1
1555.538   0.9674   0.2758   1.0000   1
1555.575   1.1087   0.2962   1.0000   1
1555.612   1.3117   0.3218   1.0000   1
1555.649   1.2043   0.3163   1.0000   1
1555.685   1.2317   0.3182   1.0000   1
1555.722   0.9916   0.2974   1.0000   1
1555.759   1.0777   0.3038   1.0000   1
1555.795   0.9006   0.2618   1.0000   1
1555.832   1.0499   0.2916   1.0000   1
1555.869   1.1037   0.3055   1.0000   1
1555.905   0.7309   0.2419   1.0000   1
1555.942   0.9405   0.2545   1.0000   1
