# Best-fit normalized data and profile from VoigtFit
# column 1 : Wavelength
# column 2 : Normalized flux
# column 3 : Normalized error
# column 4 : Best-fit profile
# column 5 : Pixel mask, 1=included, 0=excluded
1330.100   1.0166   0.0640   1.0000   1
1330.130   0.9866   0.0632   1.0000   1
1330.160   1.0173   0.0641   1.0000   1
1330.190   0.9632   0.0625   1.0000   1
1330.219   1.0258   0.0643   1.0000   1
1330.249   0.9808   0.0630   1.0000   1
1330.279   0.9949   0.0635   1.0000   1
1330.309   1.0424   0.0649   1.0000   1
1330.339   1.0374   0.0647   1.0000   1
1330.369   0.9768   0.0629   1.0000   1
1330.399   1.0105   0.0639   1.0000   1
1330.429   1.0188   0.0642   1.0000   1
1330.459   0.9572   0.0624   1.0000   1
1330.489   0.9315   0.0616   1.0000   1
1330.518   1.0019   0.0637   1.0000   1
1330.548   1.0758   0.0658   1.0000   1
1330.578   1.0268   0.0645   1.0000   1
1330.608   1.0048   0.0638   1.0000   1
1330.638   1.0089   0.0640   1.0000   1
1330.668   1.0157   0.0642   1.0000   1
1330.698   1.0069   0.0639   1.0000   1
1330.728   1.0548   0.0653   1.0000   1
1330.758   1.0235   0.0644   1.0000   1
1330.788   0.9664   0.0627   1.0000   1
1330.818   0.9779   0.0631   1.0000   1
1330.847   1.0074   0.0640   1.0000   1
1330.877   1.0503   0.0652   1.0000   1
1330.907   1.0122   0.0641   1.0000   1
1330.937   0.9696   0.0629   1.0000   1
1330.967   1.0329   0.0648   1.0000   1
1330.997   0.9259   0.0616   1.0000   1
1331.027   1.0226   0.0645   1.0000   1
1331.057   0.9856   0.0634   1.0000   1
1331.087   0.9894   0.0635   1.0000   1
1331.117   1.0497   0.0652   1.0000   1
1331.147   1.0024   0.0639   1.0000   1
1331.176   1.0137   0.0643   1.0000   1
1331.206   0.9933   0.0636   1.0000   1
1331.236   1.0221   0.0645   1.0000   1
1331.266   1.0538   0.0654   1.0000   1
1331.296   1.0210   0.0645   1.0000   1
1331.326   0.9607   0.0627   1.0000   1
1331.356   1.0079   0.0641   1.0000   1
1331.386   0.9578   0.0626   1.0000   1
1331.416   0.9937   0.0637   1.0000   1
1331.446   0.9768   0.0632   1.0000   1
1331.475   1.0361   0.0650   1.0000   1
1331.505   0.9765   0.0632   1.0000   1
1331.535   1.0198   0.0645   1.0000   1
1331.565   0.9699   0.0631   1.0000   1
1331.595   1.0613   0.0658   1.0000   1
1331.625   1.0302   0.0649   1.0000   1
1331.655   1.0225   0.0647   1.0000   1
1331.685   1.0509   0.0655   1.0000   1
1331.715   1.0621   0.0658   1.0000   1
1331.745   1.0194   0.0646   1.0000   1
1331.774   0.9495   0.0625   1.0000   1
1331.804   0.9382   0.0622   1.0000   1
1331.834   0.9879   0.0637   1.0000   1
1331.864   1.0012   0.0641   1.0000   1
1331.894   0.9966   0.0640   1.0000   1
1331.924   0.9688   0.0631   1.0000   1
1331.954   0.9607   0.0629   1.0000   1
1331.984   0.9519   0.0626   1.0000   1
1332.014   0.9827   0.0636   1.0000   1
1332.044   1.1030   0.0676   1.0000   1
1332.073   0.9985   0.0645   1.0000   1
1332.103   0.9950   0.0647   1.0000   1
1332.133   0.9838   0.0649   1.0000   1
1332.163   1.0518   0.0673   1.0000   1
1332.193   1.0818   0.0681   1.0000   1
1332.223   1.0053   0.0658   1.0000   1
1332.253   1.0131   0.0658   1.0000   1
1332.283   1.0034   0.0656   1.0000   1
1332.313   0.9744   0.0651   1.0000   1
1332.343   1.0134   0.0662   1.0000   1
1332.373   1.0779   0.0681   1.0000   1
1332.402   0.9891   0.0654   1.0000   1
1332.432   1.0544   0.0670   1.0000   1
1332.462   1.0026   0.0650   1.0000   1
1332.492   0.9820   0.0639   1.0000   1
1332.522   1.0538   0.0660   1.0000   1
1332.552   0.9745   0.0635   1.0000   1
1332.582   0.9809   0.0637   1.0000   1
1332.612   1.0078   0.0646   1.0000   1
1332.642   1.0111   0.0646   1.0000   1
1332.672   1.0040   0.0644   1.0000   1
1332.701   0.9919   0.0640   1.0000   1
1332.731   1.0056   0.0645   1.0000   1
1332.761   1.0068   0.0645   1.0000   1
1332.791   0.9979   0.0643   1.0000   1
1332.821   0.9750   0.0636   1.0000   1
1332.851   0.9755   0.0636   1.0000   1
1332.881   0.9687   0.0634   1.0000   1
1332.911   1.0401   0.0654   1.0000   1
1332.941   1.0299   0.0653   1.0000   1
1332.971   0.9810   0.0638   1.0000   1
1333.001   0.9994   0.0643   1.0000   1
1333.030   1.0268   0.0652   1.0000   1
1333.060   1.0237   0.0651   1.0000   1
1333.090   0.9555   0.0631   1.0000   1
1333.120   0.9451   0.0628   1.0000   1
1333.150   0.9743   0.0637   1.0000   1
1333.180   0.9754   0.0637   1.0000   1
1333.210   0.9935   0.0643   1.0000   1
1333.240   0.9819   0.0639   1.0000   1
1333.270   0.9857   0.0640   1.0000   1
1333.300   1.0105   0.0648   1.0000   1
1333.329   0.9780   0.0638   1.0000   1
1333.359   1.0040   0.0646   1.0000   1
1333.389   1.0541   0.0661   1.0000   1
1333.419   1.0333   0.0655   1.0000   1
1333.449   1.0594   0.0663   1.0000   1
1333.479   0.9836   0.0641   1.0000   1
1333.509   1.0384   0.0657   1.0000   1
1333.539   0.9668   0.0635   1.0000   1
1333.569   1.0148   0.0650   1.0000   1
1333.599   0.9772   0.0639   1.0000   1
1333.629   0.9131   0.0619   1.0000   1
1333.658   1.0281   0.0654   1.0000   1
1333.688   0.9866   0.0642   1.0000   1
1333.718   1.0010   0.0646   1.0000   1
1333.748   0.9813   0.0640   1.0000   1
1333.778   1.0119   0.0650   1.0000   1
1333.808   0.9584   0.0633   1.0000   1
1333.838   0.9679   0.0637   1.0000   1
1333.868   0.9479   0.0630   1.0000   1
1333.898   0.9887   0.0643   1.0000   1
1333.928   0.9798   0.0640   1.0000   1
1333.957   1.0203   0.0653   1.0000   1
1333.987   1.0489   0.0661   1.0000   1
1334.017   1.0273   0.0654   1.0000   1
1334.047   1.0038   0.0648   1.0000   1
1334.077   0.9966   0.0646   0.9999   1
1334.107   0.9583   0.0634   0.9997   1
1334.137   1.0026   0.0647   0.9992   1
1334.167   0.9091   0.0619   0.9974   1
1334.197   1.0450   0.0661   0.9923   1
1334.227   0.8840   0.0611   0.9795   1
1334.256   0.8818   0.0610   0.9504   1
1334.286   0.9091   0.0619   0.8923   1
1334.316   0.8338   0.0595   0.7942   1
1334.346   0.7469   0.0566   0.6538   1
1334.376   0.5207   0.0478   0.4855   1
1334.406   0.2712   0.0357   0.3209   1
1334.436   0.1634   0.0289   0.1888   1
1334.466   0.0845   0.0215   0.1014   1
1334.496   0.0962   0.0235   0.0544   1
1334.526   0.0514   0.0185   0.0348   1
1334.555   0.0446   0.0166   0.0328   1
1334.585   0.0452   0.0160   0.0465   1
1334.615   0.0625   0.0190   0.0793   1
1334.645   0.1319   0.0263   0.1281   1
1334.675   0.1657   0.0291   0.1717   1
1334.705   0.2133   0.0325   0.1821   1
1334.735   0.1493   0.0278   0.1573   1
1334.765   0.1179   0.0250   0.1370   1
1334.795   0.1914   0.0307   0.1660   1
1334.825   0.2584   0.0349   0.2558   1
1334.855   0.3642   0.0408   0.3671   1
1334.884   0.3989   0.0425   0.4319   1
1334.914   0.4566   0.0451   0.4278   1
1334.944   0.4077   0.0428   0.3888   1
1334.974   0.3393   0.0394   0.3543   1
1335.004   0.3165   0.0382   0.3303   1
1335.034   0.3011   0.0374   0.2994   1
1335.064   0.2607   0.0351   0.2499   1
1335.094   0.2074   0.0318   0.1869   1
1335.124   0.1270   0.0257   0.1259   1
1335.154   0.0535   0.0184   0.0781   1
1335.183   0.0493   0.0176   0.0461   1
1335.213   0.0251   0.0141   0.0271   1
1335.243   0.0222   0.0133   0.0169   1
1335.273   0.0243   0.0131   0.0118   1
1335.303   0.0143   0.0116   0.0098   1
1335.333   0.0207   0.0129   0.0100   1
1335.363   0.0212   0.0133   0.0127   1
1335.393   0.0362   0.0156   0.0189   1
1335.423   0.0343   0.0150   0.0310   1
1335.453   0.0475   0.0176   0.0529   1
1335.483   0.0629   0.0195   0.0906   1
1335.512   0.1055   0.0240   0.1487   1
1335.542   0.2262   0.0329   0.2303   1
1335.572   0.4203   0.0434   0.3308   1
1335.602   0.5120   0.0477   0.4245   1
1335.632   0.4679   0.0458   0.4616   1
1335.662   0.3883   0.0422   0.4312   1
1335.692   0.4536   0.0452   0.4381   1
1335.722   0.6289   0.0525   0.5851   1
1335.752   0.7331   0.0562   0.7834   1
1335.782   0.8910   0.0617   0.9136   1
1335.811   0.8581   0.0606   0.9663   1
1335.841   0.9082   0.0623   0.9842   1
1335.871   0.8601   0.0608   0.9920   1
1335.901   0.9947   0.0651   0.9960   1
1335.931   0.9630   0.0641   0.9981   1
1335.961   0.9649   0.0642   0.9991   1
1335.991   0.9908   0.0650   0.9996   1
1336.021   1.0254   0.0661   0.9998   1
1336.051   1.0075   0.0654   0.9999   1
1336.081   1.0247   0.0661   0.9999   1
1336.110   1.0408   0.0666   1.0000   1
1336.140   1.0091   0.0655   1.0000   1
1336.170   1.0307   0.0662   1.0000   1
1336.200   0.9694   0.0644   1.0000   0
1336.230   1.0101   0.0657   1.0000   0
1336.260   0.9618   0.0642   1.0000   0
1336.290   0.8970   0.0622   1.0000   0
1336.320   0.8476   0.0605   1.0000   0
1336.350   0.7831   0.0583   1.0000   0
1336.380   0.8314   0.0600   1.0000   0
1336.409   0.8887   0.0619   1.0000   0
1336.439   0.9401   0.0636   1.0000   0
1336.469   0.9659   0.0644   1.0000   0
1336.499   0.9308   0.0633   1.0000   0
1336.529   0.9417   0.0637   1.0000   0
1336.559   0.9680   0.0645   1.0000   0
1336.589   0.9486   0.0638   1.0000   0
1336.619   1.0194   0.0660   1.0000   0
1336.649   1.0251   0.0662   1.0000   0
1336.679   1.0274   0.0663   1.0000   0
1336.709   1.0166   0.0660   1.0000   0
1336.738   0.9413   0.0637   1.0000   0
1336.768   0.9620   0.0643   1.0000   0
1336.798   0.9621   0.0644   1.0000   0
1336.828   0.9847   0.0651   1.0000   1
1336.858   0.9376   0.0635   1.0000   1
1336.888   1.0042   0.0657   1.0000   1
1336.918   0.9835   0.0650   1.0000   1
1336.948   0.9737   0.0647   1.0000   1
1336.978   1.0284   0.0665   1.0000   1
1337.008   1.0194   0.0666   1.0000   1
1337.037   0.9970   0.0659   1.0000   1
1337.067   1.0432   0.0676   1.0000   1
1337.097   0.9738   0.0657   1.0000   1
1337.127   0.9907   0.0664   1.0000   1
1337.157   0.9852   0.0663   1.0000   1
1337.187   0.9841   0.0662   1.0000   1
1337.217   1.0185   0.0670   1.0000   1
1337.247   0.9637   0.0656   1.0000   1
1337.277   1.0061   0.0672   1.0000   1
1337.307   1.0132   0.0671   1.0000   1
1337.337   0.9932   0.0665   1.0000   1
1337.366   0.9767   0.0660   1.0000   1
1337.396   1.0149   0.0668   1.0000   1
1337.426   0.9566   0.0647   1.0000   1
1337.456   0.9809   0.0652   1.0000   1
1337.486   1.0503   0.0673   1.0000   1
1337.516   1.0729   0.0680   1.0000   1
1337.546   1.0168   0.0663   1.0000   1
1337.576   0.9812   0.0652   1.0000   1
1337.606   1.0093   0.0660   1.0000   1
1337.636   0.9762   0.0650   1.0000   1
1337.665   0.9734   0.0650   1.0000   1
1337.695   0.9671   0.0652   1.0000   1
1337.725   1.0233   0.0675   1.0000   1
1337.755   1.0273   0.0679   1.0000   1
1337.785   0.9893   0.0666   1.0000   1
1337.815   1.0516   0.0685   1.0000   1
1337.845   0.9925   0.0665   1.0000   1
1337.875   0.9743   0.0662   1.0000   1
1337.905   0.9972   0.0670   1.0000   1
1337.935   1.0423   0.0682   1.0000   1
1337.965   1.0111   0.0671   1.0000   1
1337.994   1.0115   0.0673   1.0000   1
1338.024   1.0407   0.0679   1.0000   1
1338.054   0.9714   0.0660   1.0000   1
1338.084   0.9795   0.0664   1.0000   1
1338.114   0.9926   0.0667   1.0000   1
1338.144   1.0165   0.0671   1.0000   1
1338.174   0.9918   0.0660   1.0000   1
1338.204   1.0537   0.0677   1.0000   1
1338.234   1.0222   0.0666   1.0000   1
1338.264   1.0015   0.0661   1.0000   1
1338.293   1.0599   0.0678   1.0000   1
1338.323   1.0476   0.0674   1.0000   1
1338.353   0.9204   0.0635   1.0000   1
1338.383   1.0242   0.0668   1.0000   1
1338.413   0.9595   0.0648   1.0000   1
1338.443   1.0029   0.0661   1.0000   1
1338.473   0.9560   0.0647   1.0000   1
1338.503   0.9747   0.0653   1.0000   1
1338.533   0.9559   0.0647   1.0000   1
1338.563   1.0535   0.0676   1.0000   1
1338.592   1.0478   0.0675   1.0000   1
1338.622   0.9982   0.0661   1.0000   1
1338.652   1.0085   0.0664   1.0000   1
1338.682   0.9991   0.0661   1.0000   1
1338.712   1.0155   0.0666   1.0000   1
1338.742   1.0944   0.0690   1.0000   1
1338.772   1.0105   0.0665   1.0000   1
1338.802   1.0024   0.0662   1.0000   1
1338.832   1.0290   0.0670   1.0000   1
1338.862   1.0239   0.0669   1.0000   1
1338.891   1.0267   0.0670   1.0000   1
1338.921   1.0554   0.0679   1.0000   1
1338.951   1.0303   0.0672   1.0000   1
1338.981   0.9913   0.0660   1.0000   1
