# Best-fit normalized data and profile from VoigtFit
# column 1 : Wavelength
# column 2 : Normalized flux
# column 3 : Normalized error
# column 4 : Best-fit profile
# column 5 : Pixel mask, 1=included, 0=excluded
1202.487   0.9650   0.0675   1.0000   1
1202.517   0.9891   0.0681   1.0000   1
1202.547   1.0466   0.0695   1.0000   1
1202.577   0.9800   0.0670   1.0000   1
1202.607   1.0257   0.0684   1.0000   1
1202.637   0.9424   0.0658   1.0000   1
1202.666   0.9863   0.0673   1.0000   1
1202.696   1.0116   0.0681   1.0000   1
1202.726   0.9848   0.0672   1.0000   1
1202.756   0.9787   0.0671   1.0000   1
1202.786   0.9636   0.0667   1.0000   1
1202.816   0.9708   0.0679   1.0000   1
1202.846   0.9917   0.0692   1.0000   1
1202.876   0.8918   0.0663   1.0000   1
1202.906   0.9520   0.0682   1.0000   1
1202.935   0.9808   0.0683   1.0000   1
1202.965   1.0036   0.0689   1.0000   1
1202.995   0.9069   0.0655   1.0000   1
1203.025   0.9112   0.0660   1.0000   1
1203.055   0.9727   0.0684   1.0000   1
1203.085   1.0000   0.0691   1.0000   1
1203.115   1.0330   0.0703   1.0000   1
1203.145   0.9736   0.0686   1.0000   1
1203.175   1.0089   0.0695   1.0000   1
1203.204   0.9722   0.0681   1.0000   1
1203.234   1.0144   0.0691   1.0000   1
1203.264   0.9857   0.0684   1.0000   1
1203.294   0.9029   0.0654   1.0000   1
1203.324   0.9599   0.0670   1.0000   1
1203.354   0.9042   0.0651   1.0000   1
1203.384   0.9624   0.0670   1.0000   1
1203.414   0.9885   0.0679   1.0000   1
1203.444   0.9563   0.0669   1.0000   1
1203.473   0.9514   0.0668   1.0000   1
1203.503   0.9832   0.0678   1.0000   1
1203.533   1.0373   0.0696   1.0000   1
1203.563   0.9709   0.0675   1.0000   1
1203.593   0.9488   0.0668   1.0000   1
1203.623   1.0465   0.0699   1.0000   1
1203.653   1.0282   0.0694   1.0000   1
1203.683   1.0464   0.0700   1.0000   1
1203.713   1.0050   0.0687   1.0000   1
1203.742   0.9835   0.0680   1.0000   1
1203.772   1.0087   0.0688   1.0000   1
1203.802   0.9589   0.0672   1.0000   1
1203.832   0.9698   0.0677   1.0000   1
1203.862   1.0691   0.0708   1.0000   1
1203.892   1.0218   0.0694   1.0000   1
1203.922   0.9779   0.0680   1.0000   1
1203.952   1.0229   0.0695   1.0000   1
1203.982   1.0449   0.0701   1.0000   1
1204.011   1.0004   0.0688   1.0000   1
1204.041   1.0174   0.0694   1.0000   1
1204.071   1.0175   0.0694   1.0000   1
1204.101   1.0500   0.0705   1.0000   1
1204.131   0.9427   0.0669   1.0000   1
1204.161   0.9872   0.0685   1.0000   1
1204.191   1.0222   0.0697   1.0000   1
1204.221   1.0392   0.0703   1.0000   1
1204.251   0.9409   0.0671   1.0000   1
1204.280   0.9462   0.0673   1.0000   1
1204.310   0.9926   0.0687   1.0000   1
1204.340   0.9789   0.0683   1.0000   1
1204.370   0.9575   0.0677   1.0000   1
1204.400   0.9952   0.0690   1.0000   1
1204.430   0.9909   0.0689   1.0000   1
1204.460   0.9901   0.0688   1.0000   1
1204.490   1.0127   0.0696   1.0000   1
1204.519   0.9883   0.0689   1.0000   1
1204.549   0.9784   0.0686   1.0000   1
1204.579   1.0326   0.0704   1.0000   1
1204.609   1.0937   0.0723   1.0000   1
1204.639   1.0363   0.0705   1.0000   1
1204.669   0.9897   0.0691   1.0000   1
1204.699   0.9947   0.0693   1.0000   1
1204.729   1.0369   0.0706   1.0000   1
1204.759   0.9976   0.0694   1.0000   1
1204.788   0.9959   0.0694   1.0000   1
1204.818   0.9570   0.0681   1.0000   1
1204.848   0.9765   0.0688   1.0000   1
1204.878   0.9850   0.0691   1.0000   1
1204.908   1.0501   0.0711   1.0000   1
1204.938   1.0672   0.0718   1.0000   1
1204.968   1.0440   0.0710   1.0000   1
1204.998   1.0344   0.0708   1.0000   1
1205.028   1.0477   0.0713   1.0000   1
1205.057   1.0002   0.0698   1.0000   1
1205.087   0.9207   0.0672   1.0000   1
1205.117   1.0154   0.0703   1.0000   1
1205.147   1.0802   0.0724   1.0000   1
1205.177   1.0625   0.0719   1.0000   1
1205.207   0.9860   0.0694   1.0000   1
1205.237   1.0457   0.0714   1.0000   1
1205.267   0.9907   0.0696   1.0000   1
1205.297   1.0926   0.0729   1.0000   1
1205.326   1.0339   0.0711   1.0000   1
1205.356   0.9722   0.0691   1.0000   1
1205.386   1.0347   0.0712   1.0000   1
1205.416   1.0950   0.0731   1.0000   1
1205.446   1.0301   0.0710   1.0000   1
1205.476   1.0705   0.0723   1.0000   1
1205.506   1.0335   0.0712   0.9999   1
1205.536   1.0302   0.0713   0.9999   1
1205.566   1.0219   0.0718   0.9999   1
1205.595   1.0394   0.0731   0.9999   1
1205.625   0.9532   0.0707   0.9999   1
1205.655   0.9691   0.0708   0.9999   1
1205.685   0.9979   0.0713   0.9999   1
1205.715   1.0052   0.0714   0.9999   1
1205.745   1.0412   0.0724   0.9999   1
1205.775   1.0264   0.0724   0.9999   1
1205.805   0.9675   0.0705   0.9999   1
1205.834   1.0387   0.0729   0.9999   1
1205.864   1.0697   0.0742   0.9999   1
1205.894   0.9946   0.0718   0.9999   1
1205.924   0.9342   0.0694   0.9998   1
1205.954   1.0532   0.0731   0.9997   1
1205.984   1.0038   0.0714   0.9995   1
1206.014   1.0271   0.0722   0.9991   1
1206.044   1.0129   0.0715   0.9981   1
1206.074   0.9870   0.0704   0.9959   1
1206.103   1.0155   0.0712   0.9916   1
1206.133   1.0491   0.0723   0.9833   1
1206.163   0.9280   0.0683   0.9683   1
1206.193   0.9772   0.0700   0.9426   1
1206.223   0.9661   0.0697   0.9004   1
1206.253   0.9019   0.0675   0.8374   1
1206.283   0.8825   0.0669   0.7507   1
1206.313   0.7169   0.0607   0.6417   1
1206.343   0.5790   0.0551   0.5173   1
1206.372   0.3561   0.0442   0.3904   1
1206.402   0.2230   0.0357   0.2754   1
1206.432   0.1252   0.0284   0.1821   1
1206.462   0.0929   0.0252   0.1143   1
1206.492   0.0744   0.0229   0.0699   1
1206.522   0.0574   0.0206   0.0435   1
1206.552   0.0662   0.0220   0.0291   1
1206.582   0.0488   0.0192   0.0221   1
1206.612   0.0606   0.0212   0.0200   1
1206.641   0.0655   0.0220   0.0222   1
1206.671   0.0558   0.0199   0.0294   1
1206.701   0.0397   0.0182   0.0445   1
1206.731   0.0555   0.0206   0.0712   1
1206.761   0.0961   0.0251   0.1145   1
1206.791   0.1855   0.0335   0.1759   1
1206.821   0.2422   0.0376   0.2442   1
1206.851   0.2616   0.0388   0.2778   1
1206.881   0.2532   0.0383   0.2420   1
1206.910   0.1861   0.0334   0.1839   1
1206.940   0.1808   0.0332   0.1895   1
1206.970   0.2520   0.0383   0.2459   1
1207.000   0.2736   0.0395   0.2636   1
1207.030   0.2149   0.0358   0.2227   1
1207.060   0.1355   0.0294   0.1648   1
1207.090   0.1333   0.0291   0.1186   1
1207.120   0.1003   0.0263   0.0896   1
1207.150   0.1095   0.0269   0.0760   1
1207.179   0.0795   0.0238   0.0754   1
1207.209   0.0782   0.0235   0.0877   1
1207.239   0.1095   0.0271   0.1155   1
1207.269   0.1554   0.0313   0.1634   1
1207.299   0.2480   0.0382   0.2360   1
1207.329   0.3019   0.0417   0.3350   1
1207.359   0.4554   0.0499   0.4541   1
1207.389   0.5974   0.0568   0.5814   1
1207.418   0.6923   0.0607   0.7018   1
1207.448   0.8303   0.0661   0.8036   1
1207.478   0.8880   0.0683   0.8795   1
1207.508   0.9773   0.0714   0.9311   1
1207.538   0.9936   0.0720   0.9632   1
1207.568   1.0308   0.0733   0.9816   1
1207.598   1.0219   0.0729   0.9913   1
1207.628   0.9837   0.0718   0.9961   1
1207.658   1.0860   0.0751   0.9982   1
1207.687   1.0234   0.0730   0.9992   1
1207.717   1.0118   0.0727   0.9996   1
1207.747   0.9750   0.0716   0.9998   1
1207.777   1.0196   0.0731   0.9999   1
1207.807   0.9676   0.0714   0.9999   1
1207.837   0.9754   0.0719   0.9999   1
1207.867   1.0286   0.0741   0.9999   1
1207.897   1.0175   0.0742   0.9999   1
1207.927   1.1269   0.0778   0.9999   1
1207.956   1.0581   0.0753   0.9999   1
1207.986   0.9953   0.0729   0.9999   1
1208.016   0.9867   0.0727   0.9999   1
1208.046   1.0466   0.0747   0.9999   1
1208.076   1.0253   0.0742   0.9999   1
1208.106   1.0752   0.0758   0.9999   1
1208.136   1.0718   0.0760   0.9999   1
1208.166   1.0108   0.0739   1.0000   1
1208.196   1.0044   0.0736   1.0000   1
1208.225   0.9508   0.0718   1.0000   1
1208.255   0.9860   0.0729   1.0000   1
1208.285   1.0540   0.0752   1.0000   1
1208.315   1.0433   0.0747   1.0000   1
1208.345   1.0012   0.0732   1.0000   1
1208.375   1.0590   0.0751   1.0000   1
1208.405   1.0519   0.0749   1.0000   1
1208.435   1.0495   0.0748   1.0000   1
1208.465   1.0613   0.0753   1.0000   1
1208.494   1.0688   0.0756   1.0000   1
1208.524   1.0483   0.0749   1.0000   1
1208.554   1.0438   0.0748   1.0000   1
1208.584   0.9874   0.0730   1.0000   1
1208.614   1.0543   0.0752   1.0000   1
1208.644   1.0149   0.0739   1.0000   1
1208.674   1.0159   0.0740   1.0000   1
1208.704   0.9823   0.0729   1.0000   1
1208.734   1.0125   0.0739   1.0000   1
1208.763   0.9541   0.0719   1.0000   1
1208.793   1.0139   0.0741   1.0000   1
1208.823   1.0768   0.0761   1.0000   1
1208.853   1.0030   0.0738   1.0000   1
1208.883   0.9958   0.0736   1.0000   1
1208.913   1.0483   0.0754   1.0000   1
1208.943   1.0697   0.0761   1.0000   1
1208.973   0.9991   0.0737   1.0000   1
1209.002   0.9764   0.0730   1.0000   1
1209.032   0.9435   0.0720   1.0000   1
1209.062   1.0122   0.0744   1.0000   1
1209.092   0.9751   0.0731   1.0000   1
1209.122   0.9125   0.0709   1.0000   1
1209.152   1.0220   0.0748   1.0000   1
1209.182   0.9539   0.0725   1.0000   1
1209.212   1.0452   0.0756   1.0000   1
1209.242   1.0748   0.0767   1.0000   1
1209.272   1.0496   0.0759   1.0000   1
1209.301   0.9480   0.0724   1.0000   1
1209.331   1.0126   0.0747   1.0000   1
1209.361   1.0678   0.0766   1.0000   1
1209.391   1.0208   0.0750   1.0000   1
1209.421   0.9760   0.0735   1.0000   1
1209.451   0.9534   0.0728   1.0000   1
1209.481   1.0620   0.0765   1.0000   1
1209.511   1.0402   0.0758   1.0000   1
1209.540   0.9557   0.0730   1.0000   1
1209.570   0.9917   0.0742   1.0000   1
1209.600   1.0495   0.0763   1.0000   1
1209.630   0.9774   0.0738   1.0000   1
1209.660   0.9983   0.0745   1.0000   1
1209.690   0.9825   0.0740   1.0000   1
1209.720   0.9628   0.0734   1.0000   1
1209.750   0.9641   0.0735   1.0000   1
1209.780   0.9427   0.0727   1.0000   1
1209.809   0.9644   0.0736   1.0000   1
1209.839   1.0010   0.0750   1.0000   1
1209.869   0.9899   0.0745   1.0000   1
1209.899   1.0186   0.0756   1.0000   1
1209.929   1.0306   0.0760   1.0000   1
1209.959   1.0306   0.0761   1.0000   1
1209.989   0.9064   0.0717   1.0000   1
1210.019   0.9680   0.0740   1.0000   1
1210.049   0.9589   0.0737   1.0000   1
1210.078   0.9601   0.0738   1.0000   1
1210.108   0.9831   0.0747   1.0000   1
1210.138   0.9653   0.0741   1.0000   1
1210.168   0.9566   0.0738   1.0000   1
1210.198   0.9425   0.0733   1.0000   1
1210.228   0.8980   0.0716   1.0000   1
1210.258   0.9170   0.0724   1.0000   1
1210.288   1.0004   0.0755   1.0000   1
1210.318   0.9491   0.0737   1.0000   1
1210.347   0.9724   0.0746   1.0000   1
1210.377   0.9301   0.0731   1.0000   1
1210.407   0.8973   0.0720   1.0000   1
1210.437   0.9452   0.0738   1.0000   1
1210.467   0.8510   0.0702   1.0000   1
1210.497   0.8763   0.0716   1.0000   1
