# Best-fit normalized data and profile from VoigtFit
# column 1 : Wavelength
# column 2 : Normalized flux
# column 3 : Normalized error
# column 4 : Best-fit profile
# column 5 : Pixel mask, 1=included, 0=excluded
1202.505   0.9326   0.1429   1.0000   1
1202.535   0.9678   0.1457   1.0000   1
1202.565   0.9089   0.1418   1.0000   1
1202.595   0.9129   0.1423   1.0000   1
1202.625   0.9724   0.1463   1.0000   1
1202.655   0.9214   0.1433   1.0000   1
1202.685   0.9691   0.1465   1.0000   1
1202.715   0.9060   0.1424   1.0000   1
1202.745   0.9495   0.1455   1.0000   1
1202.774   0.8216   0.1368   1.0000   1
1202.804   0.8923   0.1416   1.0000   1
1202.834   0.9616   0.1468   1.0000   1
1202.864   0.8891   0.1419   1.0000   1
1202.894   0.9859   0.1485   1.0000   1
1202.924   0.8366   0.1385   1.0000   1
1202.954   0.9741   0.1481   1.0000   1
1202.984   0.8926   0.1427   1.0000   1
1203.014   0.9286   0.1450   1.0000   1
1203.044   0.9856   0.1492   1.0000   1
1203.073   1.0032   0.1505   1.0000   1
1203.103   1.0753   0.1552   1.0000   1
1203.133   1.0213   0.1519   1.0000   1
1203.163   1.1160   0.1580   1.0000   1
1203.193   0.9516   0.1476   1.0000   1
1203.223   0.9788   0.1494   1.0000   1
1203.253   1.0217   0.1521   1.0000   1
1203.283   1.1117   0.1583   1.0000   1
1203.313   0.9310   0.1467   1.0000   1
1203.342   1.0335   0.1537   1.0000   1
1203.372   0.8591   0.1419   1.0000   1
1203.402   0.8908   0.1444   1.0000   1
1203.432   0.9244   0.1469   1.0000   1
1203.462   0.9423   0.1482   1.0000   1
1203.492   1.0195   0.1529   1.0000   1
1203.522   0.9583   0.1497   1.0000   1
1203.552   1.1189   0.1603   1.0000   1
1203.582   0.8687   0.1437   1.0000   1
1203.612   1.0324   0.1548   1.0000   1
1203.641   0.9869   0.1518   1.0000   1
1203.671   0.9898   0.1523   1.0000   1
1203.701   1.0243   0.1548   1.0000   1
1203.731   1.0755   0.1582   1.0000   1
1203.761   0.8873   0.1453   1.0000   1
1203.791   1.0612   0.1574   1.0000   1
1203.821   0.9759   0.1519   1.0000   1
1203.851   1.0255   0.1552   1.0000   1
1203.881   0.9987   0.1538   1.0000   1
1203.910   0.9788   0.1523   1.0000   1
1203.940   0.9685   0.1521   1.0000   1
1203.970   0.9621   0.1518   1.0000   1
1204.000   0.9195   0.1490   1.0000   1
1204.030   0.9411   0.1509   1.0000   1
1204.060   1.0182   0.1560   1.0000   1
1204.090   1.0617   0.1592   1.0000   1
1204.120   0.9062   0.1486   1.0000   1
1204.150   1.0309   0.1571   1.0000   1
1204.180   1.0274   0.1573   1.0000   1
1204.209   1.1326   0.1644   1.0000   1
1204.239   1.0215   0.1573   1.0000   1
1204.269   0.9827   0.1547   1.0000   1
1204.299   0.9367   0.1516   1.0000   1
1204.329   0.9621   0.1536   1.0000   1
1204.359   0.9736   0.1547   1.0000   1
1204.389   0.9402   0.1520   1.0000   1
1204.419   1.1328   0.1653   1.0000   1
1204.449   1.0163   0.1579   1.0000   1
1204.478   0.8913   0.1496   1.0000   1
1204.508   1.0189   0.1586   1.0000   1
1204.538   1.0378   0.1600   1.0000   1
1204.568   0.9211   0.1521   1.0000   1
1204.598   0.9709   0.1555   1.0000   1
1204.628   1.1093   0.1651   1.0000   1
1204.658   1.0995   0.1646   1.0000   1
1204.688   0.9136   0.1522   1.0000   1
1204.718   0.9486   0.1547   1.0000   1
1204.747   1.1007   0.1652   1.0000   1
1204.777   1.1366   0.1674   1.0000   1
1204.807   0.9957   0.1584   1.0000   1
1204.837   1.1433   0.1676   1.0000   1
1204.867   1.0576   0.1603   1.0000   1
1204.897   0.9876   0.1555   1.0000   1
1204.927   0.9355   0.1508   1.0000   1
1204.957   1.0081   0.1560   1.0000   1
1204.987   0.9896   0.1543   1.0000   1
1205.017   1.0560   0.1594   1.0000   1
1205.046   1.1014   0.1633   1.0000   1
1205.076   1.1205   0.1652   0.9999   1
1205.106   0.9203   0.1521   0.9999   1
1205.136   1.2163   0.1714   0.9999   1
1205.166   1.0191   0.1586   0.9999   1
1205.196   1.1301   0.1657   0.9999   1
1205.226   1.0507   0.1606   0.9999   1
1205.256   1.1452   0.1670   0.9999   1
1205.286   1.0377   0.1608   0.9999   1
1205.316   0.9364   0.1551   0.9999   1
1205.346   1.0552   0.1636   0.9999   1
1205.375   1.0545   0.1640   0.9999   1
1205.405   1.1292   0.1698   0.9999   1
1205.435   1.1521   0.1724   0.9999   1
1205.465   0.9360   0.1579   0.9999   1
1205.495   1.0348   0.1649   0.9999   1
1205.525   0.9410   0.1584   0.9999   1
1205.555   0.9422   0.1586   0.9999   1
1205.585   1.0855   0.1686   0.9999   1
1205.615   0.9241   0.1577   0.9999   1
1205.644   1.1190   0.1714   0.9999   1
1205.674   1.0857   0.1693   0.9999   1
1205.704   1.0753   0.1689   0.9999   1
1205.734   0.9935   0.1634   0.9998   1
1205.764   1.0064   0.1644   0.9998   1
1205.794   0.9936   0.1637   0.9998   1
1205.824   1.0295   0.1665   0.9998   1
1205.854   1.0539   0.1680   0.9998   1
1205.884   1.1517   0.1750   0.9998   1
1205.914   0.9683   0.1625   0.9997   1
1205.943   1.0107   0.1657   0.9997   1
1205.973   0.9657   0.1627   0.9997   1
1206.003   1.0775   0.1708   0.9996   1
1206.033   1.0217   0.1668   0.9994   1
1206.063   0.9760   0.1641   0.9988   1
1206.093   1.1770   0.1781   0.9975   1
1206.123   1.1401   0.1755   0.9941   1
1206.153   1.1542   0.1767   0.9865   1
1206.183   1.0577   0.1705   0.9702   1
1206.212   1.0066   0.1672   0.9377   1
1206.242   1.0042   0.1670   0.8773   1
1206.272   0.9330   0.1616   0.7788   1
1206.302   0.6474   0.1393   0.6389   1
1206.332   0.4804   0.1224   0.4690   1
1206.362   0.1859   0.0874   0.2980   1
1206.392   0.1569   0.0826   0.1592   1
1206.422   0.1025   0.0730   0.0701   1
1206.452   0.0596   0.0608   0.0250   1
1206.482   0.0469   0.0605   0.0072   1
1206.511   0.0130   0.0499   0.0017   1
1206.541   0.0108   0.0485   0.0003   1
1206.571   0.0672   0.0658   0.0001   1
1206.601   0.0259   0.0543   0.0000   1
1206.631   0.0454   0.0606   0.0000   1
1206.661   0.0270   0.0544   0.0000   1
1206.691   0.0229   0.0541   0.0002   1
1206.721   0.0173   0.0524   0.0011   1
1206.751   0.0452   0.0611   0.0046   1
1206.781   0.0431   0.0599   0.0163   1
1206.810   0.0680   0.0658   0.0464   1
1206.840   0.1232   0.0784   0.1073   1
1206.870   0.1832   0.0878   0.2044   1
1206.900   0.3086   0.1069   0.3227   1
1206.930   0.4463   0.1224   0.4375   1
1206.960   0.5180   0.1307   0.5267   1
1206.990   0.5020   0.1290   0.5823   1
1207.020   0.5565   0.1345   0.6085   1
1207.050   0.7298   0.1491   0.6169   1
1207.080   0.6776   0.1427   0.6173   1
1207.109   0.6789   0.1421   0.6166   1
1207.139   0.6353   0.1384   0.6186   1
1207.169   0.4924   0.1249   0.6252   1
1207.199   0.7692   0.1508   0.6371   1
1207.229   0.6906   0.1447   0.6539   1
1207.259   0.7409   0.1492   0.6732   1
1207.289   0.5870   0.1357   0.6876   1
1207.319   0.6120   0.1393   0.6800   1
1207.349   0.6290   0.1407   0.6248   1
1207.378   0.4727   0.1260   0.5173   1
1207.408   0.4039   0.1174   0.3917   1
1207.438   0.4353   0.1214   0.3059   1
1207.468   0.2669   0.1013   0.3047   1
1207.498   0.3058   0.1061   0.4036   1
1207.528   0.6889   0.1471   0.5717   1
1207.558   0.7753   0.1549   0.7467   1
1207.588   0.9102   0.1665   0.8750   1
1207.618   0.9480   0.1711   0.9438   1
1207.648   1.0882   0.1817   0.9726   1
1207.677   0.9427   0.1712   0.9842   1
1207.707   1.0838   0.1819   0.9899   1
1207.737   1.0875   0.1825   0.9933   1
1207.767   0.9757   0.1741   0.9956   1
1207.797   1.1565   0.1877   0.9972   1
1207.827   0.9464   0.1727   0.9982   1
1207.857   1.0343   0.1797   0.9988   1
1207.887   1.1847   0.1903   0.9993   1
1207.917   1.1915   0.1913   0.9995   1
1207.946   0.9829   0.1761   0.9997   1
1207.976   1.2129   0.1929   0.9998   1
1208.006   1.1053   0.1855   0.9998   1
1208.036   1.1388   0.1882   0.9999   1
1208.066   0.9962   0.1780   0.9999   1
1208.096   1.2207   0.1941   0.9999   1
1208.126   1.1247   0.1875   0.9999   1
1208.156   1.0587   0.1829   0.9999   1
1208.186   1.0867   0.1847   0.9999   1
1208.216   1.1231   0.1885   0.9999   1
1208.246   1.0585   0.1839   0.9999   1
1208.275   1.0331   0.1821   0.9999   1
1208.305   1.0520   0.1838   0.9999   1
1208.335   1.3440   0.2044   0.9999   1
1208.365   0.9565   0.1769   0.9999   1
1208.395   0.9497   0.1769   1.0000   1
1208.425   1.1264   0.1904   1.0000   1
1208.455   1.0878   0.1874   1.0000   1
1208.485   0.9038   0.1737   1.0000   1
1208.515   1.0469   0.1850   1.0000   1
1208.545   1.0368   0.1845   1.0000   1
1208.574   1.0551   0.1859   1.0000   1
1208.604   0.9977   0.1816   1.0000   1
1208.634   1.1586   0.1941   1.0000   1
1208.664   0.9267   0.1764   1.0000   1
1208.694   1.0540   0.1868   1.0000   1
1208.724   1.1098   0.1913   1.0000   1
1208.754   1.1344   0.1929   1.0000   1
1208.784   1.0219   0.1852   1.0000   1
1208.814   0.9557   0.1802   1.0000   1
1208.843   0.9400   0.1793   1.0000   1
1208.873   1.0890   0.1907   1.0000   1
1208.903   1.2272   0.2012   1.0000   1
1208.933   1.0173   0.1859   1.0000   1
1208.963   1.0163   0.1857   1.0000   1
1208.993   0.9653   0.1821   1.0000   1
1209.023   1.1204   0.1945   1.0000   1
1209.053   1.0968   0.1928   1.0000   1
1209.083   1.1327   0.1958   1.0000   1
1209.113   1.0607   0.1906   1.0000   1
1209.143   1.0162   0.1871   1.0000   1
1209.172   1.0438   0.1897   1.0000   1
1209.202   1.0137   0.1876   1.0000   1
1209.232   1.2188   0.2034   1.0000   1
1209.262   0.9252   0.1814   1.0000   1
1209.292   0.9622   0.1841   1.0000   1
1209.322   1.0393   0.1908   1.0000   1
1209.352   1.1884   0.2021   1.0000   1
1209.382   1.0477   0.1914   1.0000   1
1209.412   1.1385   0.1991   1.0000   1
1209.441   1.0483   0.1924   1.0000   1
1209.471   1.1270   0.1986   1.0000   1
1209.501   1.0246   0.1910   1.0000   1
1209.531   0.9170   0.1823   1.0000   1
1209.561   0.9849   0.1883   1.0000   1
1209.591   0.7638   0.1700   1.0000   1
1209.621   1.0271   0.1922   1.0000   1
1209.651   1.1168   0.1995   1.0000   1
1209.681   0.9386   0.1857   1.0000   1
1209.711   0.8851   0.1816   1.0000   1
1209.740   0.8014   0.1742   1.0000   1
1209.770   1.0453   0.1951   1.0000   1
1209.800   1.0339   0.1940   1.0000   1
1209.830   0.8588   0.1796   1.0000   1
1209.860   0.9825   0.1907   1.0000   1
1209.890   0.8129   0.1765   1.0000   1
1209.920   0.8615   0.1811   1.0000   1
1209.950   0.9137   0.1857   1.0000   1
1209.980   0.9792   0.1912   1.0000   1
1210.009   0.9661   0.1906   1.0000   1
1210.039   0.8001   0.1765   1.0000   1
1210.069   0.9800   0.1920   1.0000   1
1210.099   0.8438   0.1809   1.0000   1
1210.129   0.9627   0.1902   1.0000   1
1210.159   0.7726   0.1710   1.0000   1
1210.189   1.0818   0.1960   1.0000   1
1210.219   0.8172   0.1758   1.0000   1
1210.249   0.6808   0.1638   1.0000   1
1210.279   0.7818   0.1731   1.0000   1
1210.309   0.8823   0.1805   1.0000   1
1210.338   0.7765   0.1710   1.0000   1
1210.368   0.8237   0.1747   1.0000   1
1210.398   0.9558   0.1793   1.0000   1
1210.428   0.8981   0.1786   1.0000   1
1210.458   0.8480   0.1763   1.0000   1
1210.488   0.9735   0.1867   1.0000   1
1210.518   0.8361   0.1775   1.0000   1
