# Best-fit normalized data and profile from VoigtFit
# column 1 : Wavelength
# column 2 : Normalized flux
# column 3 : Normalized error
# column 4 : Best-fit profile
# column 5 : Pixel mask, 1=included, 0=excluded
1391.437   0.9387   0.1249   1.0000   1
1391.466   1.0244   0.1299   1.0000   1
1391.496   1.0422   0.1307   1.0000   1
1391.526   1.0466   0.1309   1.0000   1
1391.556   1.0343   0.1302   1.0000   1
1391.586   0.9587   0.1255   1.0000   1
1391.616   1.0277   0.1295   1.0000   1
1391.646   0.9927   0.1272   1.0000   1
1391.676   1.0490   0.1304   1.0000   1
1391.706   1.0957   0.1324   1.0000   1
1391.736   0.8781   0.1204   1.0000   1
1391.766   1.1499   0.1356   1.0000   1
1391.795   1.0546   0.1302   1.0000   1
1391.825   1.0511   0.1300   1.0000   1
1391.855   0.8893   0.1206   1.0000   1
1391.885   1.0527   0.1300   1.0000   1
1391.915   1.0316   0.1288   1.0000   1
1391.945   1.0238   0.1276   1.0000   1
1391.975   0.9944   0.1266   1.0000   1
1392.005   1.1155   0.1329   1.0000   1
1392.035   0.9974   0.1261   1.0000   1
1392.065   0.9512   0.1239   1.0000   1
1392.095   1.1235   0.1332   1.0000   1
1392.124   0.9118   0.1214   1.0000   1
1392.154   1.1019   0.1319   1.0000   1
1392.184   1.0688   0.1300   1.0000   1
1392.214   0.8907   0.1198   1.0000   1
1392.244   0.9759   0.1245   1.0000   1
1392.274   1.0663   0.1296   1.0000   1
1392.304   0.9948   0.1255   1.0000   1
1392.334   1.0485   0.1286   1.0000   1
1392.364   1.0357   0.1276   1.0000   1
1392.394   1.0038   0.1260   1.0000   1
1392.424   1.0051   0.1255   1.0000   1
1392.453   0.9415   0.1222   1.0000   1
1392.483   0.9793   0.1241   1.0000   1
1392.513   0.9344   0.1215   1.0000   1
1392.543   0.9987   0.1251   1.0000   1
1392.573   0.9208   0.1206   1.0000   1
1392.603   0.9813   0.1237   1.0000   1
1392.633   1.0034   0.1251   1.0000   1
1392.663   1.0926   0.1299   1.0000   1
1392.693   1.0434   0.1273   1.0000   1
1392.723   0.9642   0.1226   1.0000   1
1392.752   0.9382   0.1212   1.0000   1
1392.782   0.9872   0.1239   1.0000   1
1392.812   1.0420   0.1267   1.0000   1
1392.842   1.0427   0.1267   1.0000   1
1392.872   1.0296   0.1258   1.0000   1
1392.902   1.0362   0.1263   1.0000   1
1392.932   1.0450   0.1266   1.0000   1
1392.962   1.0252   0.1255   1.0000   1
1392.992   1.0556   0.1269   1.0000   1
1393.022   0.9959   0.1237   1.0000   1
1393.052   1.0118   0.1244   1.0000   1
1393.081   1.0641   0.1272   1.0000   1
1393.111   0.8952   0.1178   1.0000   1
1393.141   0.8980   0.1180   1.0000   1
1393.171   0.9167   0.1189   1.0000   1
1393.201   0.9706   0.1218   1.0000   1
1393.231   0.9035   0.1180   0.9999   1
1393.261   0.9348   0.1197   0.9997   1
1393.291   0.9651   0.1212   0.9993   1
1393.321   0.9288   0.1192   0.9983   1
1393.351   0.8457   0.1142   0.9961   1
1393.380   0.8735   0.1158   0.9916   1
1393.410   0.8163   0.1120   0.9828   1
1393.440   0.9071   0.1176   0.9670   1
1393.470   0.9444   0.1192   0.9413   1
1393.500   0.9173   0.1180   0.9026   1
1393.530   0.9549   0.1201   0.8495   1
1393.560   0.7906   0.1102   0.7828   1
1393.590   0.7791   0.1096   0.7072   1
1393.620   0.7110   0.1054   0.6305   1
1393.650   0.5003   0.0906   0.5608   1
1393.680   0.5170   0.0915   0.5055   1
1393.709   0.5572   0.0942   0.4695   1
1393.739   0.4856   0.0892   0.4563   1
1393.769   0.5171   0.0915   0.4657   1
1393.799   0.4722   0.0878   0.4948   1
1393.829   0.6724   0.1023   0.5385   1
1393.859   0.5636   0.0944   0.5884   1
1393.889   0.5760   0.0956   0.6344   1
1393.919   0.6575   0.1011   0.6655   1
1393.949   0.6967   0.1036   0.6750   1
1393.979   0.6626   0.1014   0.6631   1
1394.009   0.6504   0.1002   0.6351   1
1394.038   0.6155   0.0978   0.5997   1
1394.068   0.6602   0.1010   0.5664   1
1394.098   0.5879   0.0962   0.5434   1
1394.128   0.5289   0.0916   0.5357   1
1394.158   0.5920   0.0961   0.5450   1
1394.188   0.5554   0.0937   0.5710   1
1394.218   0.7059   0.1035   0.6112   1
1394.248   0.7393   0.1055   0.6616   1
1394.278   0.7375   0.1055   0.7162   1
1394.308   0.6655   0.1008   0.7686   1
1394.337   0.7817   0.1081   0.8135   1
1394.367   0.9022   0.1151   0.8480   1
1394.397   0.8285   0.1109   0.8711   1
1394.427   0.8227   0.1105   0.8842   1
1394.457   0.8790   0.1136   0.8895   1
1394.487   0.8797   0.1138   0.8904   1
1394.517   0.9315   0.1165   0.8894   1
1394.547   0.9835   0.1192   0.8886   1
1394.577   0.8392   0.1111   0.8892   1
1394.607   0.8990   0.1145   0.8919   1
1394.637   0.9263   0.1159   0.8972   1
1394.666   0.8383   0.1109   0.9046   1
1394.696   0.7770   0.1072   0.9137   1
1394.726   0.9799   0.1185   0.9240   1
1394.756   0.9120   0.1147   0.9349   1
1394.786   0.9508   0.1169   0.9458   1
1394.816   0.9015   0.1142   0.9561   1
1394.846   0.9802   0.1183   0.9654   1
1394.876   1.0009   0.1194   0.9736   1
1394.906   0.8933   0.1136   0.9803   1
1394.936   1.0264   0.1206   0.9858   1
1394.966   0.9026   0.1136   0.9900   1
1394.995   1.0297   0.1217   0.9932   1
1395.025   0.9082   0.1157   0.9955   1
1395.055   1.0107   0.1209   0.9971   1
1395.085   0.9723   0.1198   0.9982   1
1395.115   1.0982   0.1263   0.9989   1
1395.145   0.9395   0.1179   0.9993   1
1395.175   0.9271   0.1170   0.9996   1
1395.205   1.0647   0.1242   0.9998   1
1395.235   1.0468   0.1240   0.9999   1
1395.265   1.0018   0.1212   0.9999   1
1395.294   1.0618   0.1240   1.0000   1
1395.324   1.1456   0.1281   1.0000   1
1395.354   0.9763   0.1190   1.0000   1
1395.384   0.9619   0.1178   1.0000   1
1395.414   1.1120   0.1247   1.0000   1
1395.444   1.0002   0.1181   1.0000   1
1395.474   1.1783   0.1271   1.0000   1
1395.504   1.0859   0.1223   1.0000   1
1395.534   1.1462   0.1250   1.0000   1
1395.564   0.9152   0.1132   1.0000   1
1395.594   0.8859   0.1116   1.0000   1
1395.623   1.0035   0.1177   1.0000   1
1395.653   1.0714   0.1212   1.0000   1
1395.683   1.0787   0.1215   1.0000   1
1395.713   1.0244   0.1186   1.0000   1
1395.743   0.9584   0.1151   1.0000   1
1395.773   1.0834   0.1216   1.0000   1
1395.803   1.0418   0.1193   1.0000   1
1395.833   1.0045   0.1172   1.0000   1
1395.863   0.9612   0.1155   1.0000   1
1395.893   1.0065   0.1187   1.0000   1
1395.923   0.9660   0.1181   1.0000   1
1395.952   0.9774   0.1194   1.0000   1
1395.982   0.9424   0.1169   1.0000   1
1396.012   0.9872   0.1196   1.0000   1
1396.042   0.9774   0.1189   1.0000   1
1396.072   0.9966   0.1199   1.0000   1
1400.438   1.1541   0.1146   1.0000   1
1400.468   1.1492   0.1141   1.0000   1
1400.498   1.0461   0.1091   1.0000   1
1400.528   1.1250   0.1124   1.0000   1
1400.558   1.1588   0.1137   1.0000   1
1400.588   0.9881   0.1055   1.0000   1
1400.618   1.0342   0.1075   1.0000   1
1400.648   1.0123   0.1063   1.0000   1
1400.678   0.9982   0.1054   1.0000   1
1400.708   1.0760   0.1088   1.0000   1
1400.738   1.0573   0.1076   1.0000   1
1400.767   1.0855   0.1088   1.0000   1
1400.797   1.0417   0.1065   1.0000   1
1400.827   1.0649   0.1073   1.0000   1
1400.857   1.0505   0.1064   1.0000   1
1400.887   1.0079   0.1042   1.0000   1
1400.917   0.9954   0.1034   1.0000   1
1400.947   1.1172   0.1088   1.0000   1
1400.977   1.0283   0.1045   1.0000   1
1401.007   1.0091   0.1032   1.0000   1
1401.037   1.0728   0.1060   1.0000   1
1401.066   0.9849   0.1017   1.0000   1
1401.096   1.0151   0.1031   1.0000   1
1401.126   0.9741   0.1009   1.0000   1
1401.156   1.0026   0.1021   1.0000   1
1401.186   0.8969   0.0969   1.0000   1
1401.216   0.9174   0.0977   1.0000   1
1401.246   1.0275   0.1026   1.0000   1
1401.276   0.9660   0.0996   1.0000   1
1401.306   0.9572   0.0991   1.0000   1
1401.336   0.9136   0.0967   1.0000   1
1401.366   1.0296   0.1019   1.0000   1
1401.395   0.9561   0.0984   1.0000   1
1401.425   0.9879   0.0996   1.0000   1
1401.455   1.0536   0.1024   1.0000   1
1401.485   1.0056   0.1000   1.0000   1
1401.515   1.0118   0.1001   1.0000   1
1401.545   0.9945   0.0990   1.0000   1
1401.575   0.9731   0.0979   1.0000   1
1401.605   1.0212   0.0996   1.0000   1
1401.635   0.9595   0.0970   1.0000   1
1401.665   1.0304   0.1000   1.0000   1
1401.695   1.0619   0.1012   1.0000   1
1401.724   1.0786   0.1016   1.0000   1
1401.754   0.9580   0.0961   1.0000   1
1401.784   0.9562   0.0960   1.0000   1
1401.814   1.0308   0.0991   1.0000   1
1401.844   0.9866   0.0969   1.0000   1
1401.874   1.0216   0.0982   1.0000   1
1401.904   0.9691   0.0958   1.0000   1
1401.934   0.9429   0.0945   1.0000   1
1401.964   0.9528   0.0948   1.0000   1
1401.994   0.8956   0.0917   1.0000   1
1402.024   0.9968   0.0963   1.0000   1
1402.053   0.9316   0.0932   1.0000   1
1402.083   0.9734   0.0950   1.0000   1
1402.113   0.9759   0.0949   1.0000   1
1402.143   0.9323   0.0926   1.0000   1
1402.173   0.9782   0.0947   1.0000   1
1402.203   0.9045   0.0911   1.0000   1
1402.233   0.9184   0.0917   0.9999   1
1402.263   0.8973   0.0905   0.9999   1
1402.293   0.9518   0.0928   0.9997   1
1402.323   0.9800   0.0938   0.9992   1
1402.352   1.0124   0.0951   0.9982   1
1402.382   0.9282   0.0914   0.9960   1
1402.412   0.9570   0.0923   0.9919   1
1402.442   0.9038   0.0897   0.9846   1
1402.472   0.9473   0.0916   0.9722   1
1402.502   0.9475   0.0915   0.9529   1
1402.532   0.9519   0.0916   0.9254   1
1402.562   0.8866   0.0885   0.8896   1
1402.592   0.8871   0.0884   0.8470   1
1402.622   0.7786   0.0831   0.8009   1
1402.652   0.6794   0.0781   0.7560   1
1402.681   0.6409   0.0759   0.7182   1
1402.711   0.7012   0.0791   0.6920   1
1402.741   0.6658   0.0770   0.6803   1
1402.771   0.6196   0.0745   0.6841   1
1402.801   0.6310   0.0750   0.7020   1
1402.831   0.7733   0.0819   0.7304   1
1402.861   0.7926   0.0828   0.7633   1
1402.891   0.7945   0.0826   0.7935   1
1402.921   0.8068   0.0831   0.8150   1
1402.951   0.7838   0.0819   0.8239   1
1402.981   0.8536   0.0849   0.8194   1
1403.010   0.7978   0.0821   0.8039   1
1403.040   0.7606   0.0803   0.7821   1
1403.070   0.7510   0.0797   0.7603   1
1403.100   0.6956   0.0770   0.7436   1
1403.130   0.6755   0.0758   0.7358   1
1403.160   0.6720   0.0754   0.7388   1
1403.190   0.7027   0.0769   0.7529   1
1403.220   0.7463   0.0789   0.7766   1
1403.250   0.8361   0.0830   0.8065   1
1403.280   0.9093   0.0861   0.8387   1
1403.310   0.8578   0.0836   0.8697   1
1403.339   0.8705   0.0846   0.8964   1
1403.369   0.9150   0.0872   0.9172   1
1403.399   0.9100   0.0870   0.9312   1
1403.429   1.0060   0.0910   0.9395   1
1403.459   0.9456   0.0888   0.9434   1
1403.489   1.0276   0.0913   0.9445   1
1403.519   0.8685   0.0843   0.9442   1
1403.549   0.9483   0.0880   0.9436   1
1403.579   0.9910   0.0895   0.9436   1
1403.609   0.9320   0.0869   0.9447   1
1403.639   0.9931   0.0897   0.9469   1
1403.668   1.0243   0.0907   0.9504   1
1403.698   0.9768   0.0890   0.9547   1
1403.728   0.9348   0.0866   0.9598   1
1403.758   0.9563   0.0869   0.9653   1
1403.788   0.8911   0.0837   0.9709   1
1403.818   1.0187   0.0884   0.9762   1
1403.848   1.0698   0.0902   0.9810   1
1403.878   1.0444   0.0891   0.9853   1
1403.908   1.0939   0.0909   0.9890   1
1403.938   1.0777   0.0901   0.9919   1
1403.967   1.0342   0.0883   0.9943   1
1403.997   0.9980   0.0867   0.9960   1
1404.027   0.9604   0.0851   0.9973   1
1404.057   1.0051   0.0868   0.9982   1
1404.087   0.9982   0.0867   0.9989   1
1404.117   1.0727   0.0901   0.9993   1
1404.147   0.9904   0.0870   0.9996   1
1404.177   1.0204   0.0880   0.9998   1
1404.207   1.0147   0.0886   0.9999   1
1404.237   1.0111   0.0890   0.9999   1
1404.267   0.9858   0.0874   1.0000   1
1404.296   1.0135   0.0883   1.0000   1
1404.326   1.0113   0.0878   1.0000   1
1404.356   1.0234   0.0880   1.0000   1
1404.386   1.1231   0.0920   1.0000   1
1404.416   1.0467   0.0892   1.0000   1
1404.446   1.0326   0.0890   1.0000   1
1404.476   0.8737   0.0822   1.0000   1
1404.506   1.0500   0.0903   1.0000   1
1404.536   1.0164   0.0889   1.0000   1
1404.566   1.0168   0.0883   1.0000   1
1404.596   1.0585   0.0889   1.0000   1
1404.625   0.9680   0.0845   1.0000   1
1404.655   0.9885   0.0846   1.0000   1
1404.685   1.0373   0.0859   1.0000   1
1404.715   1.0809   0.0872   1.0000   1
1404.745   0.9976   0.0838   1.0000   1
1404.775   0.9584   0.0820   1.0000   1
1404.805   1.0077   0.0839   1.0000   1
1404.835   1.0181   0.0843   1.0000   1
1404.865   1.0439   0.0851   1.0000   1
1404.895   1.0033   0.0835   1.0000   1
1404.925   0.9785   0.0825   1.0000   1
1404.954   0.9078   0.0794   1.0000   1
1404.984   1.0498   0.0849   1.0000   1
1405.014   1.0444   0.0846   1.0000   1
1405.044   1.0270   0.0838   1.0000   1
1405.074   0.9249   0.0798   1.0000   1
1405.104   0.9708   0.0814   1.0000   1
