# Best-fit normalized data and profile from VoigtFit
# column 1 : Wavelength
# column 2 : Normalized flux
# column 3 : Normalized error
# column 4 : Best-fit profile
# column 5 : Pixel mask, 1=included, 0=excluded
1297.829   0.8040   0.3162   1.0000   1
1297.859   0.8433   0.3218   1.0000   1
1297.889   1.0441   0.3476   1.0000   1
1297.919   0.9521   0.3364   1.0000   1
1297.949   0.9794   0.3402   1.0000   1
1297.979   0.8767   0.3266   1.0000   1
1298.009   0.9734   0.3378   1.0000   1
1298.038   0.9308   0.3337   1.0000   1
1298.068   0.9365   0.3344   1.0000   1
1298.098   0.9386   0.3344   1.0000   1
1298.128   1.1526   0.3608   1.0000   1
1298.158   0.7635   0.3102   1.0000   1
1298.188   0.8973   0.3280   1.0000   1
1298.218   1.1871   0.3651   1.0000   1
1298.248   1.3841   0.3879   1.0000   1
1298.278   0.8790   0.3261   1.0000   1
1298.308   0.8898   0.3283   1.0000   1
1298.338   1.1478   0.3614   1.0000   1
1298.368   1.2831   0.3769   1.0000   1
1298.398   1.2025   0.3676   1.0000   1
1298.427   1.2041   0.3675   1.0000   1
1298.457   0.9531   0.3368   1.0000   1
1298.487   0.9494   0.3364   1.0000   1
1298.517   0.9627   0.3376   1.0000   1
1298.547   0.9794   0.3402   1.0000   1
1298.577   0.9987   0.3420   1.0000   1
1298.607   1.1081   0.3565   1.0000   1
1298.637   1.3607   0.3848   1.0000   1
1298.667   0.9701   0.3397   1.0000   1
1298.697   1.1407   0.3602   1.0000   1
1298.727   1.1178   0.3520   1.0000   1
1298.757   1.2520   0.3655   1.0000   1
1298.786   0.9629   0.3291   1.0000   1
1298.816   0.7799   0.2980   1.0000   1
1298.846   0.8098   0.3069   1.0000   1
1298.876   0.9491   0.3182   1.0000   1
1298.906   0.8977   0.3183   1.0000   1
1298.936   1.1106   0.3410   1.0000   1
1298.966   1.1529   0.3486   1.0000   1
1298.996   1.1798   0.3502   1.0000   1
1299.026   1.1092   0.3399   1.0000   1
1299.056   1.1931   0.3469   1.0000   1
1299.086   0.8553   0.3107   1.0000   1
1299.116   0.8524   0.3114   1.0000   1
1299.145   0.9735   0.3281   1.0000   1
1299.175   1.0193   0.3325   1.0000   1
1299.205   1.2294   0.3612   1.0000   1
1299.235   0.9579   0.3359   1.0000   1
1299.265   1.1869   0.3660   1.0000   1
1299.295   1.0685   0.3515   1.0000   1
1299.325   0.9208   0.3333   1.0000   1
1299.355   1.2034   0.3685   1.0000   1
1299.385   1.0367   0.3485   1.0000   1
1299.415   0.8512   0.3226   1.0000   1
1299.445   1.0025   0.3437   1.0000   1
1299.475   1.2000   0.3679   1.0000   1
1299.505   1.1139   0.3570   1.0000   1
1299.534   1.1704   0.3645   1.0000   1
1299.564   0.7472   0.3088   1.0000   1
1299.594   1.1493   0.3620   1.0000   1
1299.624   0.7928   0.3163   1.0000   1
1299.654   0.9650   0.3396   1.0000   1
1299.684   0.9709   0.3399   1.0000   1
1299.714   1.1414   0.3615   1.0000   1
1299.744   1.1181   0.3580   1.0000   1
1299.774   1.0012   0.3442   1.0000   1
1299.804   1.0403   0.3494   1.0000   1
1299.834   0.9279   0.3342   1.0000   1
1299.864   0.9493   0.3376   1.0000   1
1299.894   0.7961   0.3170   1.0000   1
1299.924   0.6825   0.2995   1.0000   1
1299.953   0.9801   0.3406   1.0000   1
1299.983   0.7845   0.3151   1.0000   1
1300.013   0.9878   0.3427   1.0000   1
1300.043   1.0027   0.3449   1.0000   1
1300.073   0.9114   0.3326   1.0000   1
1300.103   0.8821   0.3288   1.0000   1
1300.133   1.0222   0.3472   1.0000   1
1300.163   1.2431   0.3739   1.0000   1
1300.193   1.0419   0.3496   1.0000   1
1300.223   1.1396   0.3616   1.0000   1
1300.253   1.1293   0.3606   1.0000   1
1300.283   0.8175   0.3203   1.0000   1
1300.312   1.2993   0.3804   1.0000   1
1300.342   1.1743   0.3648   1.0000   1
1300.372   1.0493   0.3509   1.0000   1
1300.402   1.2023   0.3694   1.0000   1
1300.432   1.0123   0.3455   1.0000   1
1300.462   0.8161   0.3187   1.0000   1
1300.492   1.0005   0.3449   1.0000   1
1300.522   0.8669   0.3271   1.0000   1
1300.552   0.8746   0.3282   1.0000   1
1300.582   0.8296   0.3217   1.0000   1
1300.612   0.9130   0.3335   1.0000   1
1300.642   0.8748   0.3281   1.0000   1
1300.671   0.8259   0.3214   1.0000   1
1300.701   0.9795   0.3418   1.0000   1
1300.731   1.0907   0.3557   1.0000   1
1300.761   0.8351   0.3216   1.0000   1
1300.791   1.0707   0.3526   1.0000   1
1300.821   0.6427   0.2947   1.0000   1
1300.851   0.8649   0.3267   1.0000   1
1300.881   1.2488   0.3743   1.0000   1
1300.911   1.1582   0.3637   1.0000   1
1300.941   1.1033   0.3578   1.0000   1
1300.971   1.2667   0.3771   1.0000   1
1301.001   1.1874   0.3676   1.0000   1
1301.030   0.9200   0.3334   1.0000   1
1301.060   0.8079   0.3187   1.0000   1
1301.090   1.2795   0.3787   1.0000   1
1301.120   1.0734   0.3538   1.0000   1
1301.150   1.1552   0.3642   1.0000   1
1301.180   0.9764   0.3408   1.0000   1
1301.210   1.1020   0.3578   1.0000   1
1301.240   1.0048   0.3449   1.0000   1
1301.270   0.8014   0.3185   1.0000   1
1301.300   1.1222   0.3602   1.0000   1
1301.330   1.2403   0.3745   1.0000   1
1301.360   0.9074   0.3326   1.0000   1
1301.389   1.0873   0.3559   1.0000   1
1301.419   1.1071   0.3588   1.0000   1
1301.449   1.0349   0.3499   1.0000   1
1301.479   1.3757   0.3888   1.0000   1
1301.509   1.0890   0.3557   1.0000   1
1301.539   1.0556   0.3526   1.0000   1
1301.569   1.1329   0.3612   1.0000   1
1301.599   1.0325   0.3499   1.0000   1
1301.629   0.9260   0.3361   0.9999   1
1301.659   0.8862   0.3309   0.9999   1
1301.689   1.2253   0.3713   0.9998   1
1301.719   1.0494   0.3517   0.9995   1
1301.748   1.0245   0.3486   0.9988   1
1301.778   1.1284   0.3592   0.9974   1
1301.808   0.8827   0.3300   0.9942   1
1301.838   0.8653   0.3272   0.9876   1
1301.868   1.0126   0.3474   0.9750   1
1301.898   0.9018   0.3329   0.9523   1
1301.928   1.0340   0.3500   0.9138   1
1301.958   0.8467   0.3253   0.8529   1
1301.988   0.7240   0.3073   0.7657   1
1302.018   0.8814   0.3299   0.6525   1
1302.048   0.5832   0.2854   0.5201   1
1302.078   0.3132   0.2338   0.3836   1
1302.108   0.2262   0.2152   0.2597   1
1302.137   0.1374   0.1916   0.1610   1
1302.167   0.0857   0.1747   0.0918   1
1302.197   0.0053   0.1425   0.0500   1
1302.227   0.0139   0.1470   0.0268   1
1302.257   0.0885   0.1761   0.0150   1
1302.287   0.0718   0.1707   0.0096   1
1302.317   0.0297   0.1536   0.0078   1
1302.347   0.0635   0.1673   0.0085   1
1302.377   0.0457   0.1608   0.0122   1
1302.407   0.0400   0.1565   0.0206   1
1302.437   0.0528   0.1631   0.0381   1
1302.467   0.1095   0.1810   0.0713   1
1302.497   0.1746   0.2023   0.1272   1
1302.526   0.1327   0.1903   0.2099   1
1302.556   0.2865   0.2285   0.3170   1
1302.586   0.5155   0.2747   0.4363   1
1302.616   0.6123   0.2907   0.5466   1
1302.646   0.5285   0.2769   0.6285   1
1302.676   0.7789   0.3159   0.6692   1
1302.706   0.6246   0.2924   0.6636   1
1302.736   0.4359   0.2597   0.6203   1
1302.766   0.5910   0.2873   0.5512   1
1302.796   0.3954   0.2518   0.4698   1
1302.826   0.5408   0.2788   0.3883   1
1302.856   0.4565   0.2631   0.3161   1
1302.885   0.2732   0.2269   0.2577   1
1302.915   0.2193   0.2134   0.2146   1
1302.945   0.1543   0.1967   0.1868   1
1302.975   0.2253   0.2155   0.1734   1
1303.005   0.1532   0.1966   0.1731   1
1303.035   0.2087   0.2114   0.1859   1
1303.065   0.1769   0.2036   0.2128   1
1303.095   0.1685   0.2016   0.2554   1
1303.125   0.2556   0.2157   0.3142   1
1303.155   0.3310   0.2382   0.3881   1
1303.185   0.6054   0.2900   0.4744   1
1303.215   0.6718   0.3007   0.5678   1
1303.244   0.8565   0.3273   0.6611   1
1303.274   0.7815   0.3163   0.7471   1
1303.304   0.6569   0.2983   0.8209   1
1303.334   0.9687   0.3428   0.8793   1
1303.364   0.7168   0.3075   0.9225   1
1303.394   0.9254   0.3368   0.9526   1
1303.424   1.1625   0.3664   0.9724   1
1303.454   1.0800   0.3574   0.9846   1
1303.484   0.9519   0.3400   0.9917   1
1303.514   1.0503   0.3529   0.9957   1
1303.544   1.3185   0.3856   0.9979   1
1303.574   1.0069   0.3479   0.9990   1
1303.604   1.1144   0.3616   0.9995   1
1303.634   1.0425   0.3526   0.9998   1
1303.663   0.8346   0.3251   0.9999   1
1303.693   0.7553   0.3118   0.9999   1
1303.723   0.8044   0.3206   1.0000   1
1303.753   0.9798   0.3447   1.0000   1
1303.783   0.8354   0.3244   1.0000   1
1303.813   1.1053   0.3607   1.0000   1
1303.843   1.2985   0.3837   1.0000   1
1303.873   1.0687   0.3558   1.0000   1
1303.903   0.9636   0.3428   1.0000   1
1303.933   0.8643   0.3295   1.0000   1
1303.963   0.9453   0.3346   1.0000   1
1303.993   0.8339   0.3251   1.0000   1
1304.023   0.9355   0.3390   1.0000   0
1304.052   1.0039   0.3481   1.0000   0
1304.082   1.0297   0.3514   1.0000   0
1304.112   1.4135   0.3959   1.0000   0
1304.142   0.8415   0.3250   1.0000   0
1304.172   0.8710   0.3297   1.0000   0
1304.202   0.6667   0.3001   1.0000   0
1304.232   0.7529   0.3134   1.0000   0
1304.262   0.6187   0.2928   1.0000   0
1304.292   0.5073   0.2720   1.0000   0
1304.322   0.2320   0.2141   1.0000   0
1304.352   0.2061   0.2054   1.0000   0
1304.381   0.0816   0.1744   1.0000   0
1304.411   0.0366   0.1565   1.0000   0
1304.441   0.0945   0.1745   1.0000   0
1304.471   0.0995   0.1784   1.0000   0
1304.501   0.1425   0.1875   1.0000   0
1304.531   0.1105   0.1807   1.0000   0
1304.561   0.2987   0.2259   1.0000   0
1304.591   0.2461   0.2128   1.0000   0
1304.621   0.1855   0.2018   1.0000   0
1304.651   0.3066   0.2299   1.0000   0
1304.681   0.3452   0.2363   1.0000   0
1304.711   0.3344   0.2327   1.0000   0
1304.741   0.5818   0.2818   1.0000   0
1304.770   0.3551   0.2424   1.0000   0
1304.800   0.4528   0.2649   1.0000   0
1304.830   0.4864   0.2693   1.0000   0
1304.860   0.5214   0.2768   1.0000   0
1304.890   0.4932   0.2724   1.0000   0
1304.920   0.5284   0.2784   1.0000   0
1304.950   0.7415   0.3127   1.0000   0
1304.980   0.5206   0.2770   1.0000   0
1305.010   0.5819   0.2863   1.0000   0
1305.040   0.7476   0.3135   1.0000   0
1305.070   0.7087   0.3077   1.0000   0
1305.100   0.4605   0.2667   1.0000   0
1305.129   0.4156   0.2583   1.0000   0
1305.159   0.2748   0.2264   1.0000   0
1305.189   0.5602   0.2838   1.0000   0
1305.219   0.5529   0.2823   1.0000   0
1305.249   0.5706   0.2854   1.0000   0
1305.279   0.4822   0.2710   1.0000   0
1305.309   0.5924   0.2901   1.0000   0
1305.339   0.5374   0.2810   1.0000   0
1305.369   0.6404   0.2978   1.0000   0
1305.399   0.7903   0.3200   1.0000   0
1305.429   0.7867   0.3202   1.0000   0
1305.459   0.7675   0.3156   1.0000   0
1305.488   0.9235   0.3392   1.0000   0
1305.518   0.6958   0.3069   1.0000   0
1305.548   1.0944   0.3604   1.0000   0
1305.578   0.9711   0.3423   1.0000   0
1305.608   1.2613   0.3810   1.0000   0
1305.638   1.0361   0.3539   1.0000   1
1305.668   0.9839   0.3467   1.0000   1
1305.698   1.0254   0.3517   1.0000   1
1305.728   1.0084   0.3508   1.0000   1
1305.758   1.0490   0.3561   1.0000   1
1305.788   1.0883   0.3608   1.0000   1
1305.818   0.8404   0.3276   1.0000   1
1305.847   1.0587   0.3568   1.0000   1
1305.877   0.8096   0.3231   1.0000   1
1305.907   1.0148   0.3514   1.0000   1
1305.937   0.9282   0.3403   1.0000   1
1305.967   1.0210   0.3530   1.0000   1
1305.997   0.7006   0.3079   1.0000   1
1306.027   0.8438   0.3285   1.0000   1
1306.057   1.2127   0.3758   1.0000   1
1306.087   0.9760   0.3469   1.0000   1
1306.117   1.3701   0.3937   1.0000   1
1306.147   1.0488   0.3565   1.0000   1
1306.177   0.9918   0.3489   1.0000   1
1306.207   1.0892   0.3618   1.0000   1
1306.236   0.8353   0.3268   1.0000   1
1306.266   1.2263   0.3786   1.0000   1
1306.296   1.0756   0.3602   1.0000   1
1306.326   0.9683   0.3467   1.0000   1
1306.356   1.0378   0.3556   1.0000   1
1306.386   0.8775   0.3344   1.0000   1
1306.416   0.8638   0.3320   1.0000   1
1306.446   1.1243   0.3667   1.0000   1
1306.476   1.1697   0.3719   1.0000   1
1306.506   1.2485   0.3803   1.0000   1
