# Best-fit normalized data and profile from VoigtFit
# column 1 : Wavelength
# column 2 : Normalized flux
# column 3 : Normalized error
# column 4 : Best-fit profile
# column 5 : Pixel mask, 1=included, 0=excluded
1202.486   0.9159   0.0891   1.0000   1
1202.516   0.9379   0.0900   1.0000   1
1202.546   0.9658   0.0914   1.0000   1
1202.575   0.9562   0.0909   1.0000   1
1202.605   1.0244   0.0939   1.0000   1
1202.635   0.9440   0.0905   1.0000   1
1202.665   1.0325   0.0943   1.0000   1
1202.695   0.9723   0.0918   1.0000   1
1202.725   0.9028   0.0887   1.0000   1
1202.755   1.0390   0.0944   1.0000   1
1202.785   0.9807   0.0920   1.0000   1
1202.815   1.0342   0.0944   1.0000   1
1202.844   0.9662   0.0915   1.0000   1
1202.874   1.0372   0.0946   1.0000   1
1202.904   0.9831   0.0924   1.0000   1
1202.934   0.9547   0.0911   1.0000   1
1202.964   0.9773   0.0921   1.0000   1
1202.994   0.9941   0.0928   1.0000   1
1203.024   1.0048   0.0933   1.0000   1
1203.054   0.9616   0.0915   1.0000   1
1203.083   1.0291   0.0943   1.0000   1
1203.113   0.9729   0.0920   1.0000   1
1203.143   0.9985   0.0931   1.0000   1
1203.173   0.9468   0.0907   1.0000   1
1203.203   0.9765   0.0921   1.0000   1
1203.233   0.9835   0.0923   1.0000   1
1203.263   0.9123   0.0894   1.0000   1
1203.293   0.9312   0.0902   1.0000   1
1203.323   1.0276   0.0944   1.0000   1
1203.352   1.0490   0.0954   1.0000   1
1203.382   0.9251   0.0899   1.0000   1
1203.412   1.0325   0.0947   1.0000   1
1203.442   0.9850   0.0927   1.0000   1
1203.472   0.9108   0.0894   1.0000   1
1203.502   1.0111   0.0938   1.0000   1
1203.532   1.0133   0.0939   1.0000   1
1203.562   0.9931   0.0930   1.0000   1
1203.592   0.9691   0.0921   1.0000   1
1203.621   0.9429   0.0909   1.0000   1
1203.651   0.9469   0.0911   1.0000   1
1203.681   1.0684   0.0963   1.0000   1
1203.711   1.0429   0.0952   1.0000   0
1203.741   0.9996   0.0933   1.0000   0
1203.771   0.9879   0.0929   1.0000   0
1203.801   0.9696   0.0920   1.0000   0
1203.831   1.0042   0.0937   1.0000   0
1203.860   0.9782   0.0926   1.0000   0
1203.890   0.8219   0.0854   1.0000   0
1203.920   0.8741   0.0880   1.0000   0
1203.950   0.8201   0.0854   1.0000   0
1203.980   0.8830   0.0884   1.0000   0
1204.010   0.8866   0.0887   1.0000   0
1204.040   0.8478   0.0867   1.0000   0
1204.070   0.9027   0.0894   1.0000   0
1204.100   0.9147   0.0899   1.0000   0
1204.129   0.9164   0.0900   1.0000   0
1204.159   0.8736   0.0880   1.0000   0
1204.189   0.9027   0.0894   1.0000   0
1204.219   0.9976   0.0936   1.0000   0
1204.249   1.0125   0.0942   1.0000   0
1204.279   0.9869   0.0931   1.0000   0
1204.309   1.0606   0.0962   1.0000   0
1204.339   0.9964   0.0937   1.0000   0
1204.369   0.9330   0.0908   1.0000   1
1204.398   1.0741   0.0967   1.0000   1
1204.428   1.0315   0.0951   1.0000   1
1204.458   1.0089   0.0942   1.0000   1
1204.488   1.0236   0.0949   1.0000   1
1204.518   0.9242   0.0904   1.0000   1
1204.548   1.0226   0.0948   1.0000   1
1204.578   0.9989   0.0937   1.0000   1
1204.608   1.0457   0.0958   1.0000   1
1204.637   0.9875   0.0934   1.0000   1
1204.667   1.0404   0.0953   1.0000   1
1204.697   1.0951   0.0979   1.0000   1
1204.727   1.0475   0.0959   1.0000   1
1204.757   1.0509   0.0961   1.0000   1
1204.787   1.0250   0.0951   1.0000   1
1204.817   1.0596   0.0966   1.0000   1
1204.847   1.0528   0.0963   1.0000   1
1204.877   1.0108   0.0945   1.0000   1
1204.906   0.9930   0.0937   1.0000   1
1204.936   1.0996   0.0982   1.0000   1
1204.966   1.0727   0.0971   1.0000   1
1204.996   0.9675   0.0927   1.0000   1
1205.026   1.0150   0.0947   1.0000   1
1205.056   0.9969   0.0940   1.0000   1
1205.086   0.9979   0.0940   1.0000   1
1205.116   1.0238   0.0952   1.0000   1
1205.146   1.0998   0.0982   1.0000   1
1205.175   0.9954   0.0940   1.0000   1
1205.205   1.0530   0.0965   1.0000   1
1205.235   0.9867   0.0936   1.0000   1
1205.265   1.0169   0.0949   1.0000   1
1205.295   1.0466   0.0963   1.0000   1
1205.325   1.0697   0.0975   1.0000   1
1205.355   1.0137   0.0961   1.0000   1
1205.385   1.0397   0.0981   1.0000   1
1205.414   0.9832   0.0961   1.0000   1
1205.444   0.9613   0.0945   1.0000   1
1205.474   0.9769   0.0946   1.0000   1
1205.504   1.0356   0.0970   1.0000   1
1205.534   1.0024   0.0954   0.9999   1
1205.564   1.0305   0.0974   0.9999   1
1205.594   1.0731   0.0992   0.9999   1
1205.624   1.0025   0.0963   0.9999   1
1205.654   1.0183   0.0969   0.9999   1
1205.683   1.0378   0.0977   0.9999   1
1205.713   1.0295   0.0971   0.9999   1
1205.743   0.9307   0.0925   0.9999   1
1205.773   0.9544   0.0934   0.9999   1
1205.803   1.0740   0.0986   0.9999   1
1205.833   1.0048   0.0953   0.9998   1
1205.863   1.0181   0.0954   0.9997   1
1205.893   1.0312   0.0959   0.9995   1
1205.922   1.0145   0.0953   0.9990   1
1205.952   1.0690   0.0976   0.9980   1
1205.982   1.0058   0.0949   0.9960   1
1206.012   1.1579   0.1011   0.9922   1
1206.042   1.0889   0.0985   0.9853   1
1206.072   0.9748   0.0937   0.9729   1
1206.102   0.8772   0.0892   0.9522   1
1206.132   0.9142   0.0909   0.9194   1
1206.162   1.0306   0.0962   0.8705   1
1206.191   0.9019   0.0903   0.8021   1
1206.221   0.7271   0.0820   0.7128   1
1206.251   0.5581   0.0730   0.6062   1
1206.281   0.4320   0.0652   0.4898   1
1206.311   0.3730   0.0612   0.3743   1
1206.341   0.3258   0.0578   0.2702   1
1206.371   0.1749   0.0444   0.1856   1
1206.401   0.0943   0.0345   0.1228   1
1206.431   0.0682   0.0313   0.0800   1
1206.460   0.0716   0.0309   0.0528   1
1206.490   0.0439   0.0256   0.0367   1
1206.520   0.0446   0.0263   0.0283   1
1206.550   0.0312   0.0227   0.0251   1
1206.580   0.0290   0.0233   0.0260   1
1206.610   0.0258   0.0224   0.0312   1
1206.640   0.0508   0.0272   0.0423   1
1206.670   0.0551   0.0282   0.0619   1
1206.699   0.1062   0.0374   0.0935   1
1206.729   0.1268   0.0407   0.1390   1
1206.759   0.2126   0.0490   0.1961   1
1206.789   0.2582   0.0532   0.2556   1
1206.819   0.2929   0.0561   0.3036   1
1206.849   0.2896   0.0557   0.3274   1
1206.879   0.3136   0.0578   0.3278   1
1206.909   0.3706   0.0624   0.3173   1
1206.939   0.3727   0.0627   0.3140   1
1206.968   0.2927   0.0565   0.3337   1
1206.998   0.3845   0.0635   0.3874   1
1207.028   0.4456   0.0677   0.4762   1
1207.058   0.6034   0.0764   0.5900   1
1207.088   0.7125   0.0819   0.7084   1
1207.118   0.8090   0.0867   0.8032   1
1207.148   0.8730   0.0897   0.8410   1
1207.178   0.8069   0.0865   0.7958   1
1207.208   0.7196   0.0822   0.6724   1
1207.237   0.5125   0.0703   0.5170   1
1207.267   0.3370   0.0590   0.3974   1
1207.297   0.3784   0.0621   0.3648   1
1207.327   0.5224   0.0714   0.4353   1
1207.357   0.5478   0.0729   0.5818   1
1207.387   0.7321   0.0827   0.7495   1
1207.417   0.8690   0.0897   0.8821   1
1207.447   0.9089   0.0914   0.9575   1
1207.476   1.0138   0.0963   0.9877   1
1207.506   0.8073   0.0867   0.9971   1
1207.536   1.0294   0.0969   0.9994   1
1207.566   1.1014   0.1000   0.9998   1
1207.596   1.0291   0.0968   0.9999   1
1207.626   1.0228   0.0967   0.9999   0
1207.656   1.0351   0.0980   0.9999   0
1207.686   0.9723   0.0955   0.9999   0
1207.716   0.9293   0.0940   0.9999   0
1207.745   0.8628   0.0910   0.9999   0
1207.775   0.9213   0.0932   0.9999   0
1207.805   0.9385   0.0937   0.9999   0
1207.835   0.9716   0.0957   0.9999   0
1207.865   0.8104   0.0881   0.9999   0
1207.895   0.9357   0.0941   1.0000   0
1207.925   1.0459   0.0989   1.0000   0
1207.955   1.0319   0.0985   1.0000   0
1207.984   1.0323   0.0990   1.0000   0
1208.014   0.9941   0.0970   1.0000   0
1208.044   0.9802   0.0964   1.0000   0
1208.074   0.9100   0.0928   1.0000   0
1208.104   0.7829   0.0864   1.0000   0
1208.134   0.6859   0.0812   1.0000   0
1208.164   0.6599   0.0797   1.0000   0
1208.194   0.7055   0.0822   1.0000   0
1208.224   0.6970   0.0817   1.0000   0
1208.253   0.7871   0.0860   1.0000   0
1208.283   0.8614   0.0899   1.0000   0
1208.313   0.8962   0.0914   1.0000   0
1208.343   0.9003   0.0916   1.0000   0
1208.373   0.8852   0.0911   1.0000   0
1208.403   0.8997   0.0918   1.0000   0
1208.433   1.0225   0.0974   1.0000   0
1208.463   1.0614   0.0990   1.0000   0
1208.493   1.0866   0.1001   1.0000   0
1208.522   1.0691   0.0994   1.0000   0
1208.552   1.0732   0.0995   1.0000   0
1208.582   1.0246   0.0975   1.0000   0
1208.612   1.0099   0.0969   1.0000   0
1208.642   0.9822   0.0956   1.0000   1
1208.672   1.0222   0.0976   1.0000   1
1208.702   0.9488   0.0943   1.0000   1
1208.732   1.0971   0.1008   1.0000   1
1208.761   0.9623   0.0950   1.0000   1
1208.791   1.0441   0.0986   1.0000   1
1208.821   1.0474   0.0986   1.0000   1
1208.851   0.9684   0.0956   1.0000   1
1208.881   1.0394   0.0993   1.0000   1
1208.911   0.9725   0.0967   1.0000   1
1208.941   1.0659   0.1013   1.0000   1
1208.971   0.9771   0.0970   1.0000   1
1209.001   1.0589   0.1008   1.0000   1
1209.030   1.0104   0.0986   1.0000   1
1209.060   0.9681   0.0970   1.0000   1
1209.090   0.9704   0.0972   1.0000   1
1209.120   0.9418   0.0955   1.0000   1
1209.150   0.9502   0.0955   1.0000   1
1209.180   0.9639   0.0963   1.0000   1
1209.210   0.9517   0.0960   1.0000   1
1209.240   0.9892   0.0979   1.0000   1
1209.269   0.9429   0.0959   1.0000   1
1209.299   0.8929   0.0932   1.0000   1
1209.329   0.9951   0.0978   1.0000   1
1209.359   0.9813   0.0967   1.0000   1
1209.389   1.0602   0.0999   1.0000   1
1209.419   1.0140   0.0977   1.0000   1
1209.449   1.0594   0.0997   1.0000   1
1209.479   1.0095   0.0975   1.0000   1
1209.509   1.0147   0.0978   1.0000   1
1209.538   0.9557   0.0952   1.0000   1
1209.568   1.0473   0.0993   1.0000   1
1209.598   1.0333   0.0988   1.0000   1
1209.628   1.0498   0.0994   1.0000   1
1209.658   1.0414   0.0991   1.0000   1
1209.688   0.9390   0.0945   1.0000   1
1209.718   1.0547   0.0997   1.0000   1
1209.748   0.9993   0.0974   1.0000   1
1209.777   1.0709   0.1005   1.0000   1
1209.807   0.9989   0.0974   1.0000   1
1209.837   0.9904   0.0969   1.0000   1
1209.867   0.9836   0.0968   1.0000   1
1209.897   0.9998   0.0975   1.0000   1
1209.927   0.9988   0.0976   1.0000   1
1209.957   1.0998   0.1017   1.0000   1
1209.987   0.9970   0.0975   1.0000   1
1210.017   1.0588   0.1002   1.0000   1
1210.046   0.9727   0.0964   1.0000   1
1210.076   1.0037   0.0978   1.0000   1
1210.106   0.9033   0.0932   1.0000   1
1210.136   0.9859   0.0971   1.0000   1
1210.166   0.9647   0.0962   1.0000   1
1210.196   1.0173   0.0986   1.0000   1
1210.226   1.0083   0.0982   1.0000   1
1210.256   1.0477   0.0999   1.0000   1
1210.285   0.9729   0.0966   1.0000   1
1210.315   1.0381   0.0994   1.0000   1
1210.345   0.8473   0.0906   1.0000   1
1210.375   0.9702   0.0966   1.0000   1
1210.405   1.0081   0.0983   1.0000   1
1210.435   0.9621   0.0962   1.0000   1
1210.465   0.8951   0.0932   1.0000   1
1210.495   0.9000   0.0933   1.0000   1
