# Best-fit normalized data and profile from VoigtFit
# column 1 : Wavelength
# column 2 : Normalized flux
# column 3 : Normalized error
# column 4 : Best-fit profile
# column 5 : Pixel mask, 1=included, 0=excluded
1203.293   0.9173   0.0889   1.0000   1
1203.323   1.0124   0.0930   1.0000   1
1203.352   1.0335   0.0940   1.0000   1
1203.382   0.9115   0.0886   1.0000   1
1203.412   1.0173   0.0933   1.0000   1
1203.442   0.9705   0.0913   1.0000   1
1203.472   0.8975   0.0881   1.0000   1
1203.502   0.9964   0.0925   1.0000   1
1203.532   0.9985   0.0926   1.0000   1
1203.562   0.9787   0.0917   1.0000   1
1203.592   0.9551   0.0907   1.0000   1
1203.621   0.9293   0.0895   1.0000   1
1203.651   0.9333   0.0898   1.0000   1
1203.681   1.0531   0.0949   1.0000   1
1203.711   1.0280   0.0938   1.0000   1
1203.741   0.9854   0.0920   1.0000   1
1203.771   0.9739   0.0916   1.0000   0
1203.801   0.9559   0.0907   1.0000   0
1203.831   0.9900   0.0924   1.0000   0
1203.860   0.9644   0.0913   1.0000   0
1203.890   0.8103   0.0842   1.0000   0
1203.920   0.8619   0.0868   1.0000   0
1203.950   0.8087   0.0842   1.0000   0
1203.980   0.8707   0.0872   1.0000   0
1204.010   0.8743   0.0874   1.0000   0
1204.040   0.8361   0.0855   1.0000   0
1204.070   0.8903   0.0881   1.0000   0
1204.100   0.9021   0.0887   1.0000   0
1204.129   0.9038   0.0888   1.0000   0
1204.159   0.8616   0.0868   1.0000   0
1204.189   0.8904   0.0882   1.0000   0
1204.219   0.9841   0.0923   1.0000   0
1204.249   0.9988   0.0930   1.0000   0
1204.279   0.9736   0.0919   1.0000   0
1204.309   1.0464   0.0949   1.0000   1
1204.339   0.9831   0.0924   1.0000   1
1204.369   0.9206   0.0896   1.0000   1
1204.398   1.0598   0.0954   1.0000   1
1204.428   1.0178   0.0938   1.0000   1
1204.458   0.9956   0.0930   1.0000   1
1204.488   1.0101   0.0936   1.0000   1
1204.518   0.9121   0.0892   1.0000   1
1204.548   1.0092   0.0936   1.0000   1
1204.578   0.9858   0.0925   1.0000   1
1204.608   1.0321   0.0946   1.0000   1
1204.637   0.9747   0.0922   1.0000   1
1204.667   1.0270   0.0941   1.0000   1
1204.697   1.0810   0.0967   1.0000   1
1204.727   1.0341   0.0946   1.0000   1
1204.757   1.0374   0.0949   1.0000   1
1204.787   1.0120   0.0939   1.0000   1
1204.817   1.0461   0.0953   1.0000   1
1204.847   1.0395   0.0950   1.0000   1
1204.877   0.9980   0.0933   1.0000   1
1204.906   0.9806   0.0925   1.0000   1
1204.936   1.0858   0.0970   1.0000   1
1204.966   1.0593   0.0959   1.0000   1
1204.996   0.9555   0.0915   1.0000   1
1205.026   1.0024   0.0936   1.0000   1
1205.056   0.9846   0.0929   1.0000   1
1205.086   0.9856   0.0929   1.0000   1
1205.116   1.0113   0.0940   1.0000   1
1205.146   1.0864   0.0970   1.0000   1
1205.175   0.9832   0.0929   1.0000   1
1205.205   1.0403   0.0954   1.0000   1
1205.235   0.9748   0.0925   1.0000   1
1205.265   1.0046   0.0938   1.0000   1
1205.295   1.0341   0.0952   1.0000   1
1205.325   1.0569   0.0964   1.0000   1
1205.355   1.0016   0.0950   1.0000   1
1205.385   1.0274   0.0970   1.0000   1
1205.414   0.9716   0.0950   1.0000   1
1205.444   0.9500   0.0934   1.0000   1
1205.474   0.9654   0.0935   1.0000   1
1205.504   1.0235   0.0959   0.9999   1
1205.534   0.9907   0.0943   0.9999   1
1205.564   1.0186   0.0963   0.9999   1
1205.594   1.0607   0.0981   0.9999   1
1205.624   0.9910   0.0952   0.9999   1
1205.654   1.0067   0.0957   0.9999   1
1205.683   1.0260   0.0966   0.9999   1
1205.713   1.0178   0.0960   0.9999   1
1205.743   0.9202   0.0914   0.9999   1
1205.773   0.9437   0.0924   0.9999   1
1205.803   1.0619   0.0975   0.9999   1
1205.833   0.9936   0.0943   0.9998   1
1205.863   1.0068   0.0943   0.9997   1
1205.893   1.0197   0.0949   0.9994   1
1205.922   1.0033   0.0942   0.9989   1
1205.952   1.0573   0.0966   0.9978   1
1205.982   0.9948   0.0938   0.9957   1
1206.012   1.1453   0.1000   0.9916   1
1206.042   1.0771   0.0974   0.9842   1
1206.072   0.9643   0.0926   0.9713   1
1206.102   0.8677   0.0883   0.9499   1
1206.132   0.9045   0.0900   0.9161   1
1206.162   1.0197   0.0951   0.8660   1
1206.191   0.8924   0.0894   0.7963   1
1206.221   0.7194   0.0811   0.7066   1
1206.251   0.5522   0.0722   0.5999   1
1206.281   0.4275   0.0645   0.4840   1
1206.311   0.3692   0.0605   0.3695   1
1206.341   0.3224   0.0572   0.2667   1
1206.371   0.1731   0.0440   0.1830   1
1206.401   0.0933   0.0341   0.1209   1
1206.431   0.0675   0.0310   0.0787   1
1206.460   0.0708   0.0306   0.0521   1
1206.490   0.0435   0.0254   0.0364   1
1206.520   0.0442   0.0260   0.0281   1
1206.550   0.0309   0.0225   0.0248   1
1206.580   0.0287   0.0231   0.0255   1
1206.610   0.0256   0.0221   0.0306   1
1206.640   0.0503   0.0269   0.0414   1
1206.670   0.0546   0.0279   0.0607   1
1206.699   0.1051   0.0370   0.0926   1
1206.729   0.1255   0.0403   0.1410   1
1206.759   0.2105   0.0486   0.2056   1
1206.789   0.2557   0.0527   0.2673   1
1206.819   0.2901   0.0556   0.2866   1
1206.849   0.2868   0.0552   0.2819   1
1206.879   0.3106   0.0572   0.3214   1
1206.909   0.3671   0.0618   0.3590   1
1206.939   0.3692   0.0621   0.3453   1
1206.968   0.2900   0.0560   0.3286   1
1206.998   0.3810   0.0629   0.3570   1
1207.028   0.4414   0.0670   0.4446   1
1207.058   0.5979   0.0757   0.5777   1
1207.088   0.7060   0.0811   0.7205   1
1207.118   0.8017   0.0859   0.8262   1
1207.148   0.8651   0.0889   0.8565   1
1207.178   0.7996   0.0857   0.7953   1
1207.208   0.7132   0.0814   0.6603   1
1207.237   0.5079   0.0697   0.5051   1
1207.267   0.3341   0.0585   0.3933   1
1207.297   0.3751   0.0615   0.3666   1
1207.327   0.5178   0.0708   0.4345   1
1207.357   0.5431   0.0723   0.5753   1
1207.387   0.7258   0.0820   0.7392   1
1207.417   0.8615   0.0890   0.8721   1
1207.447   0.9011   0.0906   0.9507   1
1207.476   1.0052   0.0955   0.9850   1
1207.506   0.8005   0.0860   0.9963   0
1207.536   1.0208   0.0961   0.9992   0
1207.566   1.0923   0.0991   0.9997   0
1207.596   1.0206   0.0960   0.9999   0
1207.626   1.0144   0.0959   0.9999   0
1207.656   1.0267   0.0972   0.9999   0
1207.686   0.9644   0.0947   0.9999   0
1207.716   0.9218   0.0932   0.9999   0
1207.745   0.8559   0.0903   0.9999   0
1207.775   0.9140   0.0924   0.9999   0
1207.805   0.9311   0.0930   0.9999   0
1207.835   0.9639   0.0949   0.9999   0
1207.865   0.8041   0.0874   0.9999   0
1207.895   0.9284   0.0934   0.9999   0
1207.925   1.0379   0.0981   0.9999   0
1207.955   1.0240   0.0977   1.0000   0
1207.984   1.0245   0.0982   1.0000   0
1208.014   0.9866   0.0962   1.0000   0
1208.044   0.9729   0.0957   1.0000   0
1208.074   0.9033   0.0921   1.0000   0
1208.104   0.7771   0.0858   1.0000   0
1208.134   0.6809   0.0806   1.0000   0
1208.164   0.6551   0.0791   1.0000   0
1208.194   0.7004   0.0816   1.0000   0
1208.224   0.6920   0.0811   1.0000   0
1208.253   0.7815   0.0854   1.0000   0
1208.283   0.8554   0.0893   1.0000   0
1208.313   0.8899   0.0908   1.0000   0
1208.343   0.8940   0.0910   1.0000   0
1208.373   0.8791   0.0905   1.0000   0
1208.403   0.8936   0.0912   1.0000   0
1208.433   1.0156   0.0967   1.0000   0
1208.463   1.0543   0.0984   1.0000   0
1208.493   1.0793   0.0994   1.0000   0
1208.522   1.0620   0.0987   1.0000   0
1208.552   1.0662   0.0989   1.0000   0
1208.582   1.0180   0.0969   1.0000   0
1208.612   1.0034   0.0962   1.0000   1
1208.642   0.9759   0.0950   1.0000   1
1208.672   1.0157   0.0969   1.0000   1
1208.702   0.9428   0.0937   1.0000   1
1208.732   1.0903   0.1002   1.0000   1
1208.761   0.9564   0.0944   1.0000   1
1208.791   1.0377   0.0980   1.0000   1
1208.821   1.0410   0.0980   1.0000   1
1208.851   0.9626   0.0950   1.0000   1
1208.881   1.0332   0.0987   1.0000   1
1208.911   0.9668   0.0961   1.0000   1
1208.941   1.0597   0.1007   1.0000   1
1208.971   0.9714   0.0964   1.0000   1
1209.001   1.0529   0.1002   1.0000   1
1209.030   1.0047   0.0980   1.0000   1
1209.060   0.9627   0.0964   1.0000   1
1209.090   0.9650   0.0966   1.0000   1
1209.120   0.9366   0.0949   1.0000   1
1209.150   0.9450   0.0950   1.0000   1
1209.180   0.9587   0.0958   1.0000   1
1209.210   0.9466   0.0955   1.0000   1
1209.240   0.9840   0.0974   1.0000   1
1209.269   0.9380   0.0954   1.0000   1
1209.299   0.8883   0.0927   1.0000   1
1209.329   0.9900   0.0973   1.0000   1
1209.359   0.9763   0.0962   1.0000   1
1209.389   1.0549   0.0994   1.0000   1
1209.419   1.0090   0.0972   1.0000   1
1209.449   1.0543   0.0992   1.0000   1
1209.479   1.0047   0.0970   1.0000   1
1209.509   1.0099   0.0974   1.0000   1
1209.538   0.9512   0.0947   1.0000   1
1209.568   1.0424   0.0988   1.0000   1
1209.598   1.0285   0.0983   1.0000   1
1209.628   1.0450   0.0990   1.0000   1
1209.658   1.0367   0.0987   1.0000   1
1209.688   0.9348   0.0941   1.0000   1
1209.718   1.0501   0.0993   1.0000   1
