# Best-fit normalized data and profile from VoigtFit
# column 1 : Wavelength
# column 2 : Normalized flux
# column 3 : Normalized error
# column 4 : Best-fit profile
# column 5 : Pixel mask, 1=included, 0=excluded
1190.729   0.7856   0.3963   0.9999   1
1190.759   0.9403   0.4195   0.9998   1
1190.788   1.0502   0.4378   0.9998   1
1190.818   0.5828   0.3426   0.9998   1
1190.848   0.9492   0.4028   0.9998   1
1190.878   1.1562   0.4494   0.9998   1
1190.908   0.8452   0.4109   0.9998   1
1190.938   0.9004   0.4157   0.9998   1
1190.968   1.4670   0.4950   0.9998   1
1190.998   1.1088   0.4395   0.9998   1
1191.028   1.1040   0.4347   0.9998   1
1191.057   1.2036   0.4460   0.9998   1
1191.087   1.5595   0.4969   0.9997   1
1191.117   1.2269   0.4541   0.9997   1
1191.147   0.9352   0.4124   0.9997   1
1191.177   1.0709   0.4152   0.9997   1
1191.207   0.8997   0.4052   0.9997   1
1191.237   0.9401   0.4096   0.9997   1
1191.267   1.3849   0.4738   0.9996   1
1191.297   1.1934   0.4487   0.9996   1
1191.326   0.9977   0.4051   0.9996   1
1191.356   1.2560   0.4546   0.9996   1
1191.386   0.9297   0.4066   0.9995   1
1191.416   0.8970   0.4010   0.9995   1
1191.446   1.0575   0.4288   0.9994   1
1191.476   1.0871   0.4272   0.9994   1
1191.506   0.7999   0.3882   0.9994   1
1191.536   0.6325   0.3589   0.9993   1
1191.566   0.8657   0.3956   0.9992   1
1191.596   0.9245   0.4066   0.9991   1
1191.625   1.0186   0.4216   0.9991   1
1191.655   0.8896   0.4018   0.9990   1
1191.685   1.3996   0.4686   0.9988   1
1191.715   1.4017   0.4735   0.9987   1
1191.745   0.8293   0.3897   0.9985   1
1191.775   1.1086   0.4320   0.9983   1
1191.805   1.1814   0.4412   0.9980   1
1191.835   0.9769   0.4104   0.9977   1
1191.865   1.0510   0.4249   0.9973   1
1191.894   1.0785   0.4248   0.9967   1
1191.924   1.3347   0.4627   0.9959   1
1191.954   1.2966   0.4578   0.9949   1
1191.984   1.1120   0.4327   0.9933   1
1192.014   1.0081   0.4167   0.9908   1
1192.044   0.6920   0.3660   0.9865   1
1192.074   0.6942   0.3460   0.9777   1
1192.104   0.9458   0.4065   0.9534   1
1192.134   1.0120   0.4117   0.8761   1
1192.163   0.6897   0.3634   0.6897   1
1192.193   0.4992   0.3288   0.4839   1
1192.223   0.4406   0.3146   0.5141   1
1192.253   0.8799   0.3953   0.7304   1
1192.283   0.9093   0.3980   0.8946   1
1192.313   0.8132   0.3823   0.9593   1
1192.343   0.9377   0.4021   0.9796   1
1192.373   1.0338   0.4127   0.9874   1
1192.403   0.9110   0.3979   0.9913   1
1192.433   1.0071   0.4135   0.9935   1
1192.462   0.8734   0.3899   0.9950   1
1192.492   1.0342   0.4157   0.9960   1
1192.522   1.4419   0.4720   0.9967   1
1192.552   1.0912   0.4251   0.9972   1
1192.582   0.8101   0.3834   0.9976   1
1192.612   1.1918   0.4389   0.9979   1
1192.642   1.4009   0.4654   0.9982   1
1192.672   1.1503   0.4321   0.9983   1
1192.702   1.2525   0.4443   0.9984   1
1192.731   1.1498   0.4317   0.9981   1
1192.761   0.5636   0.3384   0.9973   1
1192.791   1.0803   0.4230   0.9951   1
1192.821   0.7149   0.3636   0.9897   1
1192.851   0.9952   0.4097   0.9775   1
1192.881   1.0242   0.4123   0.9529   1
1192.911   0.8346   0.3845   0.9076   1
1192.941   1.2320   0.4407   0.8332   1
1192.971   0.6446   0.3491   0.7251   1
1193.001   0.7400   0.3692   0.5881   1
1193.030   0.5500   0.3318   0.4383   1
1193.060   0.2378   0.2421   0.2983   1
1193.090   0.0859   0.2006   0.1865   1
1193.120   0.0858   0.2062   0.1101   1
1193.150   0.1163   0.2165   0.0654   1
1193.180   0.0254   0.1818   0.0426   1
1193.210   0.0531   0.1889   0.0338   1
1193.240   0.0852   0.1977   0.0354   1
1193.270   -0.0083   0.1729   0.0482   1
1193.299   0.0865   0.1989   0.0773   1
1193.329   0.1780   0.2331   0.1312   1
1193.359   0.2087   0.2364   0.2180   1
1193.389   0.2814   0.2647   0.3394   1
1193.419   0.6606   0.3444   0.4851   1
1193.449   0.7851   0.3837   0.6340   1
1193.479   1.0725   0.4270   0.7632   1
1193.509   0.5871   0.3511   0.8605   1
1193.539   0.5129   0.3337   0.9248   1
1193.568   0.7517   0.3753   0.9626   1
1193.598   0.5122   0.3288   0.9827   1
1193.628   1.0034   0.4067   0.9924   1
1193.658   1.1650   0.4339   0.9968   1
1193.688   1.3679   0.4595   0.9986   1
1193.718   1.0604   0.4151   0.9993   1
1193.748   1.1780   0.4373   0.9996   1
1193.778   1.1020   0.4329   0.9997   1
1193.808   0.8233   0.3831   0.9997   1
1193.837   1.2072   0.4403   0.9997   1
1193.867   0.8514   0.3831   0.9998   1
1193.897   1.1587   0.4213   0.9998   1
1193.927   0.7285   0.3598   0.9998   1
1193.957   1.2383   0.4373   0.9998   1
1193.987   0.7264   0.3600   0.9998   1
1194.017   0.7830   0.3691   0.9998   1
1194.047   0.9377   0.3937   0.9998   1
1194.077   1.0289   0.4072   0.9998   1
1194.107   1.0863   0.4058   0.9998   1
1194.136   1.0738   0.4133   0.9999   1
1194.166   1.0882   0.4097   0.9999   1
1194.196   1.0146   0.4050   0.9999   1
1194.226   0.8984   0.3860   0.9999   1
1194.256   0.9244   0.3839   0.9999   1
1194.286   1.2056   0.4203   0.9999   1
1194.316   1.1665   0.4257   0.9999   1
1194.346   0.8342   0.3759   0.9999   1
1194.376   1.2230   0.4299   0.9999   1
1194.405   0.6880   0.3474   0.9999   1
1194.435   1.0209   0.4045   0.9999   1
1194.465   0.9514   0.3925   0.9999   1
1194.495   1.1607   0.4229   0.9999   1
1194.525   1.1660   0.4235   0.9999   1
1194.555   0.8370   0.3746   0.9999   1
1194.585   1.0236   0.4033   0.9999   1
1194.615   0.9561   0.3858   0.9999   1
1194.645   1.2589   0.4280   0.9999   1
1194.675   1.1260   0.4177   0.9999   1
1194.704   1.1912   0.4264   0.9999   1
1194.734   1.2413   0.4269   0.9999   1
1194.764   1.2046   0.4264   0.9999   1
1194.794   0.5965   0.3163   0.9999   1
1194.824   1.0029   0.3996   0.9999   1
1194.854   0.7337   0.3585   0.9999   1
1194.884   1.0333   0.4036   0.9999   1
1194.914   0.7979   0.3687   0.9999   1
1194.944   0.9705   0.3940   0.9999   1
1194.973   0.9690   0.3940   0.9999   1
1195.003   1.2887   0.4358   0.9999   1
1195.033   0.7827   0.3652   0.9999   1
1195.063   0.9201   0.3825   0.9999   1
1195.093   1.0022   0.3960   0.9999   1
1195.123   1.0794   0.4090   0.9999   1
1195.153   1.1767   0.4219   1.0000   1
1195.183   0.9663   0.3901   1.0000   1
1195.213   0.9252   0.3847   1.0000   1
1195.242   0.8919   0.3763   1.0000   1
1195.272   1.2839   0.4357   1.0000   1
1195.302   0.9383   0.3864   1.0000   1
1195.332   1.0556   0.4014   1.0000   1
1195.362   1.1906   0.4214   1.0000   1
1195.392   0.9978   0.3960   1.0000   1
1195.422   0.9627   0.3881   1.0000   1
1195.452   1.1461   0.4145   1.0000   1
1195.482   1.0009   0.3940   1.0000   1
1195.511   1.3966   0.4471   1.0000   1
1195.541   0.9744   0.3894   1.0000   1
1195.571   1.1699   0.4104   1.0000   1
1195.601   1.2790   0.4305   1.0000   1
1195.631   1.1739   0.4163   1.0000   1
1195.661   0.9481   0.3785   1.0000   1
1195.691   0.7782   0.3597   1.0000   1
1195.721   1.3144   0.4322   1.0000   1
1195.751   1.0245   0.3970   1.0000   1
1195.781   1.3168   0.4356   1.0000   1
1195.810   0.8467   0.3692   1.0000   1
1195.840   1.0935   0.4047   1.0000   1
1195.870   0.7405   0.3510   1.0000   1
