# Best-fit normalized data and profile from VoigtFit
# column 1 : Wavelength
# column 2 : Normalized flux
# column 3 : Normalized error
# column 4 : Best-fit profile
# column 5 : Pixel mask, 1=included, 0=excluded
1546.408   0.9889   0.0671   1.0000   1
1546.445   1.0131   0.0678   1.0000   1
1546.482   1.0157   0.0676   1.0000   1
1546.518   1.0297   0.0672   1.0000   1
1546.555   1.0803   0.0686   1.0000   1
1546.592   0.9988   0.0662   1.0000   1
1546.629   1.0348   0.0674   1.0000   1
1546.665   0.9467   0.0646   1.0000   1
1546.702   1.0401   0.0676   1.0000   1
1546.739   1.0180   0.0670   1.0000   1
1546.775   1.0177   0.0670   1.0000   1
1546.812   1.0061   0.0667   1.0000   1
1546.849   0.9517   0.0651   1.0000   1
1546.885   0.9852   0.0661   1.0000   1
1546.922   0.9964   0.0666   1.0000   1
1546.959   0.9976   0.0666   1.0000   1
1546.996   0.9732   0.0659   1.0000   1
1547.032   0.9905   0.0665   1.0000   1
1547.069   0.9668   0.0659   1.0000   1
1547.106   1.0087   0.0672   1.0000   1
1547.142   1.0111   0.0673   1.0000   1
1547.179   1.0132   0.0676   1.0000   1
1547.216   1.0162   0.0682   1.0000   1
1547.252   0.9755   0.0673   1.0000   1
1547.289   0.9841   0.0675   1.0000   1
1547.326   1.0287   0.0690   1.0000   1
1547.363   1.0722   0.0705   1.0000   1
1547.399   1.0619   0.0700   1.0000   1
1547.436   1.0350   0.0693   1.0000   1
1547.473   0.9271   0.0660   1.0000   1
1547.509   0.9717   0.0676   1.0000   1
1547.546   1.0174   0.0691   1.0000   1
1547.583   0.9859   0.0681   1.0000   1
1547.620   1.0569   0.0704   1.0000   1
1547.656   1.0472   0.0701   1.0000   1
1547.693   1.0000   0.0687   1.0000   1
1547.730   0.9690   0.0672   1.0000   1
1547.766   0.9365   0.0659   1.0000   1
1547.803   0.9389   0.0660   1.0000   1
1547.840   0.9828   0.0675   1.0000   1
1547.876   0.9765   0.0674   1.0000   0
1547.913   0.9898   0.0678   1.0000   0
1547.950   0.9360   0.0661   1.0000   0
1547.987   0.8639   0.0637   1.0000   0
1548.023   0.7636   0.0602   1.0000   0
1548.060   0.5930   0.0536   1.0000   0
1548.097   0.4685   0.0481   1.0000   0
1548.133   0.3667   0.0431   1.0000   0
1548.170   0.3508   0.0424   1.0000   0
1548.207   0.3605   0.0430   1.0000   0
1548.243   0.3425   0.0420   1.0000   0
1548.280   0.2817   0.0386   1.0000   0
1548.317   0.2579   0.0374   1.0000   0
1548.354   0.2923   0.0395   1.0000   0
1548.390   0.3818   0.0447   1.0000   0
1548.427   0.4812   0.0498   1.0000   0
1548.464   0.4538   0.0486   1.0000   0
1548.500   0.3836   0.0451   1.0000   0
1548.537   0.3232   0.0416   1.0000   0
1548.574   0.2407   0.0365   1.0000   0
1548.611   0.2367   0.0363   1.0000   0
1548.647   0.3045   0.0407   1.0000   0
1548.684   0.4204   0.0472   1.0000   0
1548.721   0.4604   0.0492   1.0000   0
1548.757   0.6237   0.0565   1.0000   0
1548.794   0.6959   0.0593   1.0000   0
1548.831   0.5769   0.0542   1.0000   0
1548.867   0.5589   0.0532   1.0000   0
1548.904   0.5942   0.0547   1.0000   0
1548.941   0.6399   0.0566   1.0000   0
1548.978   0.6566   0.0574   1.0000   0
1549.014   0.7058   0.0594   1.0000   0
1549.051   0.5896   0.0547   1.0000   0
1549.088   0.5820   0.0544   1.0000   0
1549.124   0.6128   0.0558   1.0000   0
1549.161   0.6362   0.0568   1.0000   0
1549.198   0.7339   0.0608   1.0000   0
1549.234   0.7830   0.0626   1.0000   0
1549.271   0.6867   0.0591   1.0000   0
1549.308   0.7316   0.0609   1.0000   0
1549.345   0.7487   0.0615   1.0000   0
1549.381   0.8848   0.0665   1.0000   0
1549.418   0.9102   0.0675   1.0000   0
1549.455   0.8753   0.0663   1.0000   0
1549.491   0.8765   0.0664   1.0000   0
1549.528   0.9083   0.0676   1.0000   0
1549.565   0.9742   0.0699   1.0000   0
1549.602   0.9908   0.0705   1.0000   0
1549.638   0.9800   0.0702   1.0000   0
1549.675   0.9893   0.0706   1.0000   0
1549.712   0.9537   0.0694   1.0000   0
1549.748   1.0588   0.0730   1.0000   0
1549.785   1.0308   0.0725   1.0000   0
1549.822   1.0140   0.0726   1.0000   0
1549.858   0.9793   0.0716   1.0000   0
1549.895   1.0099   0.0729   1.0000   0
1549.932   0.9802   0.0719   1.0000   0
1549.969   0.8558   0.0674   1.0000   0
1550.005   0.9152   0.0693   1.0000   0
1550.042   0.8958   0.0687   1.0000   0
1550.079   0.8600   0.0676   1.0000   0
1550.115   0.9023   0.0692   1.0000   0
1550.152   0.9757   0.0719   1.0000   0
1550.189   1.0089   0.0729   0.9999   0
1550.225   0.9797   0.0716   0.9998   0
1550.262   1.0712   0.0744   0.9995   1
1550.299   1.0401   0.0733   0.9988   1
1550.336   0.9801   0.0714   0.9974   1
1550.372   1.0071   0.0723   0.9946   1
1550.409   0.9784   0.0715   0.9896   1
1550.446   1.0119   0.0726   0.9813   1
1550.482   1.0073   0.0726   0.9681   1
1550.519   0.9497   0.0706   0.9486   1
1550.556   0.8957   0.0688   0.9205   1
1550.593   0.8567   0.0675   0.8745   1
1550.629   0.8070   0.0657   0.7897   1
1550.666   0.6662   0.0601   0.6673   1
1550.703   0.5667   0.0559   0.5769   1
1550.739   0.5998   0.0575   0.5837   1
1550.776   0.6313   0.0589   0.6439   1
1550.813   0.6616   0.0603   0.6612   1
1550.849   0.6070   0.0579   0.6006   1
1550.886   0.5875   0.0571   0.5992   1
1550.923   0.7350   0.0633   0.7135   1
1550.960   0.7904   0.0656   0.8009   1
1550.996   0.8549   0.0680   0.8486   1
1551.033   0.8848   0.0693   0.8871   1
1551.070   0.9329   0.0710   0.9204   1
1551.106   0.9384   0.0713   0.9472   1
1551.143   0.9304   0.0710   0.9671   1
1551.180   1.0167   0.0740   0.9807   1
1551.217   0.9541   0.0720   0.9893   1
1551.253   0.9838   0.0731   0.9944   1
1551.290   1.0028   0.0738   0.9972   1
1551.327   1.0507   0.0756   0.9987   1
1551.363   0.9793   0.0733   0.9993   1
1551.400   1.0275   0.0754   0.9991   1
1551.437   0.9342   0.0724   0.9973   1
1551.473   0.9941   0.0747   0.9912   1
1551.510   0.9964   0.0749   0.9770   1
1551.547   0.9497   0.0738   0.9528   1
1551.584   0.9121   0.0723   0.9241   1
1551.620   0.9251   0.0728   0.9034   1
1551.657   0.8835   0.0711   0.9024   1
1551.694   0.9272   0.0728   0.9195   1
1551.730   0.9297   0.0729   0.9328   1
1551.767   0.9227   0.0728   0.9108   1
1551.804   0.8627   0.0705   0.8796   1
1551.841   0.9308   0.0732   0.9105   1
1551.877   0.9570   0.0743   0.9676   1
1551.914   0.9677   0.0745   0.9944   1
1551.951   1.0062   0.0756   0.9995   1
1551.987   1.0232   0.0760   1.0000   1
1552.024   1.0056   0.0754   1.0000   1
1552.061   0.9961   0.0751   1.0000   1
1552.097   0.9913   0.0749   1.0000   1
1552.134   0.9895   0.0750   1.0000   1
1552.171   1.0856   0.0784   1.0000   1
1552.208   1.0950   0.0788   1.0000   1
1552.244   1.0359   0.0768   1.0000   1
1552.281   0.9963   0.0754   1.0000   1
1552.318   0.9064   0.0724   1.0000   1
1552.354   0.9449   0.0739   1.0000   1
1552.391   0.9534   0.0742   1.0000   1
1552.428   0.9714   0.0749   1.0000   1
1552.464   0.9837   0.0755   1.0000   1
1552.501   0.9221   0.0733   1.0000   1
1552.538   1.0547   0.0781   1.0000   1
1552.575   1.0415   0.0777   1.0000   1
1552.611   1.0388   0.0777   1.0000   1
1552.648   0.9142   0.0733   1.0000   1
1552.685   1.0425   0.0779   1.0000   1
1552.721   0.9799   0.0758   1.0000   1
1552.758   1.0349   0.0779   1.0000   1
1552.795   0.9637   0.0752   1.0000   1
1552.832   0.9038   0.0732   1.0000   1
1552.868   1.0015   0.0769   1.0000   1
1552.905   0.9406   0.0748   1.0000   1
1552.942   1.0066   0.0772   1.0000   1
1552.978   1.0155   0.0776   1.0000   1
1553.015   0.9574   0.0756   1.0000   1
1553.052   0.9642   0.0759   1.0000   1
1553.088   1.0777   0.0800   1.0000   1
1553.125   1.0176   0.0780   1.0000   1
1553.162   1.0287   0.0785   1.0000   1
1553.199   1.0737   0.0801   1.0000   1
1553.235   0.9710   0.0767   1.0000   1
1553.272   0.9077   0.0743   1.0000   1
1553.309   0.9429   0.0757   1.0000   1
1553.345   0.9511   0.0761   1.0000   1
1553.382   0.9009   0.0743   1.0000   1
1553.419   0.9588   0.0765   1.0000   1
1553.455   0.9795   0.0773   1.0000   1
1553.492   0.9980   0.0781   1.0000   1
1553.529   1.0552   0.0802   1.0000   1
1553.566   0.9284   0.0757   1.0000   1
1553.602   0.9415   0.0763   1.0000   1
1553.639   0.9678   0.0773   1.0000   1
1553.676   0.9112   0.0752   1.0000   1
1553.712   0.9470   0.0767   1.0000   1
1553.749   0.9470   0.0768   1.0000   1
1553.786   1.0177   0.0795   1.0000   1
1553.823   0.9608   0.0775   1.0000   1
1553.859   0.9677   0.0778   1.0000   1
1553.896   1.0028   0.0792   1.0000   1
1553.933   0.9854   0.0786   1.0000   1
1553.969   0.9950   0.0790   1.0000   1
1554.006   0.9438   0.0772   1.0000   1
1554.043   1.0477   0.0811   1.0000   1
1554.079   1.0005   0.0795   1.0000   1
1554.116   1.0128   0.0800   1.0000   1
1554.153   1.0150   0.0802   1.0000   1
1554.190   1.0797   0.0826   1.0000   1
1554.226   1.0197   0.0806   1.0000   1
1554.263   1.0647   0.0823   1.0000   1
1554.300   1.1105   0.0840   1.0000   1
1554.336   1.0401   0.0816   1.0000   1
1554.373   1.0395   0.0816   1.0000   1
1554.410   1.0006   0.0801   1.0000   1
1554.447   1.0661   0.0827   1.0000   1
1554.483   1.0977   0.0840   1.0000   1
1554.520   1.0549   0.0825   1.0000   1
1554.557   0.9998   0.0806   1.0000   1
1554.593   1.0784   0.0836   1.0000   1
1554.630   0.9554   0.0791   1.0000   1
1554.667   1.0032   0.0810   1.0000   1
1554.703   0.9784   0.0801   1.0000   1
1554.740   1.0462   0.0827   1.0000   1
1554.777   0.9950   0.0809   1.0000   1
1554.814   1.0056   0.0813   1.0000   1
1554.850   0.9993   0.0812   1.0000   1
1554.887   1.0429   0.0830   1.0000   1
1554.924   1.0610   0.0837   1.0000   1
1554.960   1.0357   0.0828   1.0000   1
1554.997   0.9893   0.0812   1.0000   1
1555.034   1.0413   0.0832   1.0000   1
1555.070   1.0113   0.0822   1.0000   1
1555.107   1.0728   0.0846   1.0000   1
1555.144   0.9960   0.0818   1.0000   1
