# Best-fit normalized data and profile from VoigtFit
# column 1 : Wavelength
# column 2 : Normalized flux
# column 3 : Normalized error
# column 4 : Best-fit profile
# column 5 : Pixel mask, 1=included, 0=excluded
1256.226   1.0143   0.0647   1.0000   1
1256.256   0.9796   0.0635   1.0000   1
1256.285   1.0328   0.0650   1.0000   1
1256.315   1.0240   0.0648   1.0000   1
1256.345   0.9358   0.0620   1.0000   1
1256.375   0.9893   0.0638   1.0000   1
1256.405   1.0112   0.0645   1.0000   1
1256.435   1.0277   0.0649   1.0000   1
1256.465   0.9884   0.0637   1.0000   1
1256.495   1.0190   0.0646   1.0000   1
1256.525   0.9616   0.0630   1.0000   1
1256.554   1.0060   0.0643   1.0000   1
1256.584   1.0428   0.0654   1.0000   1
1256.614   0.9599   0.0630   1.0000   1
1256.644   1.0259   0.0650   1.0000   1
1256.674   0.9728   0.0633   1.0000   1
1256.704   1.0017   0.0642   1.0000   1
1256.734   0.9911   0.0639   1.0000   1
1256.764   1.0053   0.0643   1.0000   1
1256.793   1.0520   0.0657   1.0000   1
1256.823   1.0065   0.0644   1.0000   1
1256.853   1.0580   0.0662   1.0000   1
1256.883   1.0682   0.0671   1.0000   1
1256.913   1.0151   0.0656   1.0000   1
1256.943   0.9973   0.0646   1.0000   1
1256.973   0.9498   0.0638   1.0000   1
1257.003   0.9568   0.0641   1.0000   1
1257.033   0.9172   0.0626   1.0000   1
1257.062   1.0284   0.0657   1.0000   1
1257.092   0.9609   0.0640   1.0000   1
1257.122   0.9402   0.0630   1.0000   1
1257.152   1.0611   0.0670   1.0000   1
1257.182   1.0277   0.0660   1.0000   1
1257.212   1.0136   0.0656   1.0000   1
1257.242   0.9918   0.0648   1.0000   1
1257.272   1.0554   0.0665   1.0000   1
1257.302   1.0373   0.0655   1.0000   1
1257.331   1.0106   0.0646   1.0000   1
1257.361   0.9619   0.0631   1.0000   1
1257.391   0.9572   0.0630   1.0000   1
1257.421   1.0391   0.0655   1.0000   1
1257.451   1.0067   0.0644   1.0000   1
1257.481   0.9573   0.0629   1.0000   1
1257.511   1.0265   0.0651   1.0000   1
1257.541   1.1020   0.0673   1.0000   1
1257.570   1.0101   0.0646   1.0000   1
1257.600   0.9830   0.0638   1.0000   1
1257.630   1.0011   0.0643   1.0000   1
1257.660   1.0643   0.0663   1.0000   1
1257.690   1.0350   0.0653   1.0000   1
1257.720   1.0299   0.0651   1.0000   1
1257.750   1.0118   0.0647   1.0000   1
1257.780   1.0299   0.0649   1.0000   1
1257.810   1.0305   0.0653   1.0000   1
1257.839   1.0039   0.0645   1.0000   1
1257.869   1.0048   0.0645   1.0000   1
1257.899   1.0086   0.0646   1.0000   1
1257.929   0.9806   0.0636   1.0000   1
1257.959   1.0331   0.0653   1.0000   1
1257.989   0.9942   0.0642   1.0000   1
1258.019   0.9825   0.0639   1.0000   1
1258.049   0.9808   0.0638   1.0000   1
1258.079   0.9652   0.0632   1.0000   1
1258.108   0.9804   0.0638   1.0000   1
1258.138   0.9492   0.0628   1.0000   1
1258.168   0.9689   0.0635   1.0000   1
1258.198   0.9863   0.0640   1.0000   1
1258.228   0.9525   0.0630   1.0000   1
1258.258   1.0052   0.0646   1.0000   1
1258.288   1.0523   0.0660   1.0000   1
1258.318   1.0648   0.0663   1.0000   1
1258.347   1.0181   0.0653   1.0000   1
1258.377   1.0620   0.0672   1.0000   1
1258.407   0.9516   0.0641   1.0000   1
1258.437   1.0381   0.0669   1.0000   1
1258.467   1.1183   0.0694   1.0000   1
1258.497   1.0715   0.0676   1.0000   1
1258.527   1.1032   0.0681   1.0000   1
1258.557   1.0201   0.0654   1.0000   1
1258.587   0.9571   0.0638   1.0000   1
1258.616   1.0494   0.0669   1.0000   1
1258.646   0.9474   0.0637   1.0000   1
1258.676   1.0138   0.0659   1.0000   1
1258.706   0.9654   0.0641   1.0000   1
1258.736   0.9665   0.0637   1.0000   1
1258.766   0.9948   0.0644   1.0000   1
1258.796   0.9859   0.0640   1.0000   1
1258.826   1.0019   0.0645   1.0000   1
1258.855   0.9605   0.0632   1.0000   1
1258.885   0.9543   0.0629   1.0000   1
1258.915   0.9635   0.0635   1.0000   1
1258.945   0.8988   0.0612   1.0000   1
1258.975   0.9061   0.0616   1.0000   1
1259.005   0.9204   0.0621   1.0000   1
1259.035   0.9057   0.0616   1.0000   1
1259.065   0.9917   0.0641   1.0000   1
1259.095   1.0184   0.0651   1.0000   1
1259.124   1.0608   0.0664   1.0000   1
1259.154   1.0361   0.0657   1.0000   1
1259.184   1.0459   0.0660   1.0000   1
1259.214   1.0781   0.0667   0.9999   1
1259.244   1.0143   0.0652   0.9999   1
1259.274   1.0065   0.0650   0.9999   1
1259.304   0.9916   0.0649   0.9999   1
1259.334   0.9679   0.0644   0.9999   0
1259.364   1.0843   0.0680   0.9999   0
1259.393   1.0174   0.0662   0.9999   0
1259.423   0.8636   0.0612   0.9999   0
1259.453   0.7517   0.0575   0.9999   0
1259.483   0.5253   0.0485   0.9999   0
1259.513   0.3608   0.0406   0.9999   0
1259.543   0.3315   0.0393   0.9999   0
1259.573   0.4209   0.0439   0.9999   0
1259.603   0.5531   0.0491   0.9999   0
1259.632   0.7447   0.0570   0.9999   0
1259.662   0.9451   0.0639   0.9999   0
1259.692   0.9897   0.0652   0.9999   0
1259.722   0.9622   0.0639   0.9998   1
1259.752   0.9504   0.0631   0.9998   1
1259.782   0.9960   0.0646   0.9998   1
1259.812   1.0029   0.0648   0.9998   1
1259.842   0.9604   0.0635   0.9998   1
1259.872   1.0431   0.0660   0.9998   1
1259.901   0.9901   0.0644   0.9997   1
1259.931   0.9565   0.0632   0.9997   1
1259.961   1.0192   0.0653   0.9996   1
1259.991   0.9540   0.0633   0.9996   1
1260.021   0.9671   0.0634   0.9995   1
1260.051   0.9300   0.0625   0.9994   1
1260.081   0.9541   0.0633   0.9993   1
1260.111   0.9698   0.0638   0.9986   1
1260.141   0.9563   0.0634   0.9959   1
1260.170   0.9838   0.0643   0.9856   1
1260.200   0.8608   0.0603   0.9525   1
1260.230   0.8534   0.0602   0.8672   1
1260.260   0.7185   0.0555   0.6993   1
1260.290   0.6457   0.0528   0.4665   1
1260.320   0.5043   0.0457   0.2403   1
1260.350   0.2605   0.0346   0.0895   1
1260.380   0.1916   0.0305   0.0238   1
1260.409   0.1190   0.0243   0.0048   1
1260.439   0.1015   0.0219   0.0015   1
1260.469   0.1129   0.0239   0.0054   1
1260.499   0.1475   0.0269   0.0263   1
1260.529   0.1735   0.0293   0.0982   1
1260.559   0.2596   0.0347   0.2538   1
1260.589   0.4756   0.0459   0.4791   1
1260.619   0.6917   0.0545   0.7020   1
1260.649   0.7741   0.0575   0.8524   1
1260.678   0.8641   0.0604   0.9196   1
1260.708   0.8129   0.0589   0.9348   1
1260.738   0.8204   0.0584   0.9252   1
1260.768   0.8777   0.0610   0.9048   1
1260.798   0.8376   0.0597   0.8787   1
1260.828   0.8764   0.0609   0.8489   1
1260.858   0.8380   0.0597   0.8168   1
1260.888   0.7960   0.0583   0.7835   1
1260.918   0.8428   0.0598   0.7507   1
1260.947   0.8293   0.0594   0.7199   1
1260.977   0.8606   0.0604   0.6928   1
1261.007   0.7374   0.0563   0.6706   1
1261.037   0.6630   0.0536   0.6545   1
1261.067   0.5085   0.0474   0.6452   1
1261.097   0.5567   0.0493   0.6433   1
1261.127   0.7130   0.0552   0.6486   1
1261.157   0.7040   0.0551   0.6605   1
1261.187   0.6566   0.0534   0.6735   1
1261.216   0.6663   0.0538   0.6606   1
1261.246   0.6128   0.0518   0.5916   1
1261.276   0.5403   0.0487   0.5359   1
1261.306   0.6238   0.0520   0.6103   1
1261.336   0.7181   0.0556   0.7551   1
1261.366   0.8181   0.0591   0.8470   1
1261.396   0.8571   0.0604   0.8899   1
1261.426   0.9508   0.0635   0.9165   1
1261.455   1.0366   0.0661   0.9376   1
1261.485   0.9775   0.0642   0.9546   1
1261.515   1.0155   0.0655   0.9678   1
1261.545   0.9780   0.0646   0.9778   1
1261.575   1.0190   0.0660   0.9851   1
1261.605   1.0597   0.0673   0.9903   1
1261.635   0.9559   0.0643   0.9938   1
1261.665   1.0693   0.0677   0.9961   1
1261.695   1.0107   0.0659   0.9976   1
1261.724   0.9617   0.0644   0.9986   1
1261.754   1.0136   0.0662   0.9992   1
1261.784   1.0102   0.0659   0.9995   1
1261.814   1.0235   0.0663   0.9997   1
1261.844   1.0169   0.0662   0.9998   1
1261.874   0.9461   0.0639   0.9999   1
1261.904   0.9782   0.0648   0.9999   1
1261.934   0.9704   0.0644   0.9999   1
1261.964   1.0523   0.0667   0.9999   1
1261.993   0.9562   0.0638   0.9999   1
1262.023   1.0332   0.0661   1.0000   1
1262.053   0.9958   0.0650   1.0000   1
1262.083   1.0271   0.0660   1.0000   1
1262.113   1.0394   0.0663   1.0000   1
1262.143   0.9848   0.0646   1.0000   1
1262.173   0.9831   0.0646   1.0000   1
1262.203   1.0541   0.0667   1.0000   1
1262.232   1.0496   0.0665   1.0000   1
1262.262   0.9932   0.0649   1.0000   1
1262.292   0.9803   0.0643   1.0000   1
1262.322   0.9989   0.0650   1.0000   1
1262.352   0.9826   0.0645   1.0000   1
1262.382   0.9600   0.0639   1.0000   1
1262.412   0.9527   0.0638   1.0000   1
1262.442   0.9489   0.0635   1.0000   1
1262.472   0.9665   0.0638   1.0000   1
1262.501   0.9650   0.0640   1.0000   1
1262.531   0.9881   0.0648   1.0000   1
1262.561   0.9801   0.0643   1.0000   1
1262.591   1.0512   0.0668   1.0000   1
1262.621   0.9676   0.0641   1.0000   1
1262.651   1.0530   0.0667   1.0000   1
1262.681   0.9857   0.0647   1.0000   1
1262.711   1.0239   0.0659   1.0000   1
1262.741   1.0859   0.0677   1.0000   1
1262.770   1.0150   0.0657   1.0000   1
1262.800   0.9674   0.0642   1.0000   1
1262.830   0.9635   0.0641   1.0000   1
1262.860   0.9965   0.0651   1.0000   1
1262.890   0.9618   0.0641   1.0000   1
1262.920   0.9276   0.0627   1.0000   1
1262.950   0.9333   0.0627   1.0000   1
1262.980   0.9526   0.0637   1.0000   1
1263.009   0.9475   0.0637   1.0000   1
1263.039   1.0217   0.0660   1.0000   1
1263.069   1.0323   0.0663   1.0000   1
1263.099   1.0074   0.0655   1.0000   1
1263.129   1.0158   0.0658   1.0000   1
1263.159   0.9575   0.0640   1.0000   1
1263.189   1.0567   0.0670   1.0000   1
1263.219   1.0016   0.0654   1.0000   1
1263.249   0.9978   0.0653   1.0000   1
1263.278   1.0216   0.0659   1.0000   1
1263.308   0.9900   0.0650   1.0000   1
1263.338   0.9694   0.0644   1.0000   1
1263.368   0.9820   0.0648   1.0000   1
1263.398   0.9533   0.0639   1.0000   1
1263.428   1.0065   0.0655   1.0000   1
1263.458   1.0723   0.0676   1.0000   1
1263.488   1.0523   0.0668   1.0000   1
1263.517   1.0606   0.0670   1.0000   1
1263.547   1.0283   0.0662   1.0000   1
1263.577   0.9871   0.0649   1.0000   1
1263.607   1.0270   0.0662   1.0000   1
1263.637   1.0155   0.0658   1.0000   1
1263.667   1.0675   0.0674   1.0000   1
1263.697   1.0162   0.0659   1.0000   1
1263.727   1.0110   0.0658   1.0000   1
1263.757   0.9249   0.0631   1.0000   1
1263.786   1.0020   0.0655   1.0000   1
1263.816   1.0378   0.0666   1.0000   1
1263.846   0.9445   0.0635   1.0000   1
1263.876   1.0010   0.0653   1.0000   1
1263.906   0.9980   0.0654   1.0000   1
1263.936   1.0213   0.0660   1.0000   1
1263.966   0.9831   0.0649   1.0000   1
1263.996   0.9692   0.0645   1.0000   1
1264.026   0.9434   0.0637   1.0000   1
1264.055   1.0089   0.0657   1.0000   1
1264.085   1.0259   0.0662   1.0000   1
1264.115   1.0180   0.0659   1.0000   1
1264.145   0.9884   0.0652   1.0000   1
1264.175   1.0118   0.0656   1.0000   1
1264.205   1.0696   0.0677   1.0000   1
1264.235   1.0213   0.0665   1.0000   1
1264.265   1.0970   0.0691   1.0000   1
1264.294   1.0985   0.0696   1.0000   1
1264.324   0.9920   0.0664   1.0000   1
1264.354   0.9933   0.0663   1.0000   1
1264.384   0.9744   0.0654   1.0000   1
1264.414   0.9793   0.0659   1.0000   1
1264.444   0.9390   0.0647   1.0000   1
1264.474   0.9941   0.0665   1.0000   1
1264.504   0.9768   0.0658   1.0000   1
1264.534   0.9891   0.0662   1.0000   1
1264.563   1.0481   0.0681   1.0000   1
1264.593   1.0153   0.0670   1.0000   1
1264.623   1.0070   0.0664   1.0000   1
1186.453   0.8853   0.0737   1.0000   1
1186.483   0.7836   0.0697   1.0000   1
1186.513   0.7423   0.0680   1.0000   1
1186.543   0.7168   0.0667   1.0000   1
1186.572   0.8837   0.0736   1.0000   1
1186.602   0.8256   0.0713   1.0000   1
1186.632   0.8800   0.0734   1.0000   1
1186.662   0.9081   0.0745   1.0000   1
1186.692   0.9816   0.0771   1.0000   1
1186.722   1.0164   0.0771   1.0000   1
1186.752   1.0164   0.0784   1.0000   1
1186.782   1.0533   0.0798   1.0000   1
1186.812   1.0682   0.0801   1.0000   1
1186.841   0.9945   0.0774   1.0000   1
1186.871   1.0331   0.0788   1.0000   1
1186.901   1.0134   0.0783   1.0000   1
1186.931   1.0788   0.0807   1.0000   1
1186.961   1.0892   0.0810   1.0000   1
1186.991   1.0710   0.0801   1.0000   1
1187.021   1.0795   0.0802   1.0000   1
1187.051   1.0563   0.0797   1.0000   1
1187.080   1.1228   0.0820   1.0000   1
1187.110   1.0391   0.0791   1.0000   1
1187.140   1.0281   0.0787   1.0000   1
1187.170   0.9656   0.0764   1.0000   1
1187.200   1.0818   0.0803   1.0000   1
1187.230   1.0374   0.0790   1.0000   1
1187.260   1.0495   0.0795   1.0000   1
1187.290   1.0212   0.0782   1.0000   1
1187.319   1.0370   0.0786   1.0000   1
1187.349   1.0477   0.0792   1.0000   1
1187.379   1.0442   0.0790   1.0000   1
1187.409   1.0873   0.0802   1.0000   1
1187.439   1.0445   0.0791   1.0000   1
1187.469   1.0249   0.0785   1.0000   1
1187.499   1.0814   0.0804   1.0000   1
1187.529   1.0204   0.0775   1.0000   1
1187.558   1.1190   0.0817   1.0000   1
1187.588   0.9897   0.0772   1.0000   1
1187.618   1.0017   0.0775   1.0000   1
1187.648   1.0536   0.0794   1.0000   1
1187.678   1.0584   0.0795   1.0000   1
1187.708   1.0870   0.0804   1.0000   1
1187.738   1.1726   0.0834   1.0000   1
1187.768   1.1065   0.0812   1.0000   1
1187.797   1.0906   0.0806   1.0000   1
1187.827   1.0588   0.0794   1.0000   1
1187.857   0.9322   0.0748   1.0000   1
1187.887   1.0520   0.0792   1.0000   1
1187.917   1.0476   0.0789   1.0000   1
1187.947   0.9947   0.0770   1.0000   1
1187.977   1.0530   0.0791   1.0000   1
1188.007   1.1082   0.0811   1.0000   1
1188.037   1.0017   0.0774   1.0000   1
1188.066   1.0122   0.0776   1.0000   1
1188.096   0.9566   0.0756   1.0000   1
1188.126   1.0549   0.0784   1.0000   1
1188.156   1.0802   0.0800   1.0000   1
1188.186   1.0690   0.0796   1.0000   1
1188.216   1.0733   0.0797   1.0000   1
1188.246   1.0005   0.0772   1.0000   1
1188.276   0.9752   0.0763   1.0000   1
1188.305   1.0414   0.0786   1.0000   1
1188.335   1.0020   0.0772   1.0000   1
1188.365   0.9720   0.0759   1.0000   1
1188.395   1.0051   0.0772   1.0000   1
1188.425   0.9789   0.0762   1.0000   1
1188.455   0.9787   0.0762   1.0000   1
1188.485   1.0020   0.0769   1.0000   1
1188.515   1.0532   0.0788   1.0000   1
1188.544   1.0448   0.0785   1.0000   1
1188.574   1.0825   0.0800   1.0000   1
1188.604   1.0830   0.0803   1.0000   1
1188.634   1.0361   0.0792   1.0000   1
1188.664   1.0058   0.0782   1.0000   1
1188.694   0.9928   0.0777   1.0000   1
1188.724   0.9745   0.0770   1.0000   1
1188.754   0.9522   0.0758   1.0000   1
1188.783   1.0093   0.0779   1.0000   1
1188.813   1.0765   0.0804   1.0000   1
1188.843   1.0373   0.0793   1.0000   1
1188.873   0.9882   0.0777   1.0000   1
1188.903   1.0670   0.0804   1.0000   1
1188.933   1.0606   0.0802   1.0000   1
1188.963   1.0454   0.0789   1.0000   1
1188.993   1.0065   0.0781   1.0000   1
1189.023   1.0444   0.0792   1.0000   1
1189.052   0.9823   0.0761   1.0000   1
1189.082   1.0702   0.0794   1.0000   1
1189.112   1.0310   0.0779   1.0000   1
1189.142   1.0688   0.0791   1.0000   1
1189.172   0.9661   0.0755   1.0000   1
1189.202   1.0223   0.0775   1.0000   1
1189.232   1.1002   0.0801   1.0000   1
1189.262   1.0555   0.0786   1.0000   1
1189.291   1.0197   0.0773   1.0000   1
1189.321   1.0255   0.0775   1.0000   1
1189.351   1.0482   0.0781   1.0000   1
1189.381   1.0515   0.0784   1.0000   1
1189.411   0.9780   0.0757   1.0000   1
1189.441   1.0735   0.0791   1.0000   1
1189.471   1.0691   0.0788   1.0000   1
1189.501   1.1358   0.0813   1.0000   1
1189.530   1.0864   0.0795   1.0000   1
1189.560   1.0666   0.0787   1.0000   1
1189.590   1.0455   0.0781   1.0000   1
1189.620   1.0245   0.0776   1.0000   1
1189.650   0.9435   0.0750   1.0000   1
1189.680   1.0923   0.0803   1.0000   1
1189.710   0.9790   0.0766   1.0000   1
1189.740   1.0964   0.0800   1.0000   1
1189.769   1.0739   0.0800   1.0000   1
1189.799   1.0422   0.0793   1.0000   1
1189.829   1.0453   0.0790   1.0000   1
1189.859   0.9994   0.0776   1.0000   1
1189.889   1.0499   0.0791   0.9999   1
1189.919   1.0831   0.0795   0.9999   1
1189.949   0.9739   0.0763   0.9999   1
1189.979   1.0173   0.0779   0.9999   1
1190.009   1.0175   0.0780   0.9999   1
1190.038   1.0719   0.0799   0.9999   1
1190.068   0.9831   0.0769   0.9999   1
1190.098   0.9506   0.0752   0.9998   1
1190.128   0.8735   0.0713   0.9997   1
1190.158   0.8198   0.0696   0.9992   1
1190.188   0.7034   0.0641   0.9967   1
1190.218   0.6363   0.0618   0.9881   1
1190.248   0.7020   0.0647   0.9613   1
1190.277   0.6989   0.0646   0.8983   1
1190.307   0.6572   0.0628   0.7830   1
1190.337   0.5098   0.0557   0.6188   1
1190.367   0.3581   0.0473   0.4458   1
1190.397   0.2369   0.0385   0.3114   1
1190.427   0.1900   0.0353   0.2471   1
1190.457   0.1954   0.0366   0.2580   1
1190.487   0.2950   0.0435   0.3454   1
1190.516   0.4560   0.0524   0.4955   1
1190.546   0.6779   0.0634   0.6704   1
1190.576   0.8586   0.0708   0.8213   1
1190.606   0.8826   0.0717   0.9190   1
1190.636   0.9137   0.0728   0.9678   1
1190.666   0.9602   0.0746   0.9845   1
1190.696   0.9303   0.0732   0.9875   1
1190.726   0.9653   0.0746   0.9851   1
1190.755   0.9779   0.0751   0.9804   1
1190.785   0.9704   0.0748   0.9745   1
1190.815   0.9358   0.0736   0.9677   1
1190.845   0.9872   0.0754   0.9601   1
1190.875   0.9626   0.0746   0.9522   1
1190.905   1.0090   0.0762   0.9443   1
1190.935   0.9876   0.0754   0.9369   1
1190.965   0.8956   0.0712   0.9305   1
1190.995   0.9279   0.0732   0.9256   1
1191.024   0.8034   0.0685   0.9226   1
1191.054   0.8269   0.0698   0.9215   1
1191.084   0.9361   0.0743   0.9227   1
1191.114   0.9544   0.0747   0.9258   1
1191.144   0.9817   0.0761   0.9289   1
1191.174   0.8584   0.0716   0.9211   1
1191.204   0.9253   0.0745   0.8910   1
1191.234   0.9626   0.0753   0.8709   1
1191.263   0.8980   0.0729   0.9048   1
1191.293   1.0144   0.0772   0.9508   1
1191.323   1.0610   0.0790   0.9727   1
1191.353   0.9845   0.0764   0.9809   1
1191.383   1.0174   0.0778   0.9860   1
1191.413   1.0210   0.0776   0.9899   1
1191.443   0.9845   0.0765   0.9930   1
1191.473   1.0339   0.0781   0.9952   1
1191.502   0.9873   0.0760   0.9968   1
1191.532   0.9500   0.0736   0.9980   1
1191.562   1.0640   0.0782   0.9987   1
1191.592   1.0878   0.0786   0.9992   1
1191.622   1.0174   0.0762   0.9995   1
1191.652   1.0260   0.0764   0.9997   1
1191.682   1.0873   0.0784   0.9998   1
1191.712   1.0040   0.0755   0.9999   1
1191.741   1.0694   0.0778   0.9999   1
1191.771   1.0868   0.0784   1.0000   1
1191.801   1.0149   0.0760   1.0000   1
1191.831   1.0283   0.0764   1.0000   1
1191.861   1.0392   0.0767   1.0000   1
1191.891   1.0319   0.0763   1.0000   1
1191.921   0.9774   0.0745   1.0000   1
1191.951   0.9954   0.0752   1.0000   1
1191.981   0.9644   0.0740   1.0000   1
1192.010   1.0345   0.0765   1.0000   1
1192.040   1.0061   0.0755   1.0000   1
1192.070   0.9671   0.0746   1.0000   1
1192.100   1.0625   0.0781   1.0000   1
1192.130   1.0615   0.0782   1.0000   1
1192.160   0.9564   0.0749   1.0000   1
1192.190   0.9916   0.0766   1.0000   1
1192.220   0.9991   0.0766   1.0000   1
1192.249   0.9873   0.0759   1.0000   1
1192.279   1.0316   0.0768   1.0000   1
1192.309   1.0273   0.0779   1.0000   1
1192.339   1.0969   0.0804   1.0000   1
1192.369   1.1134   0.0813   1.0000   1
1192.399   1.0568   0.0793   1.0000   1
1192.429   1.0014   0.0769   1.0000   1
1192.459   1.0142   0.0771   1.0000   1
1192.488   1.0275   0.0774   1.0000   1
1192.518   1.0405   0.0773   0.9999   1
1192.548   1.0480   0.0773   0.9999   1
1192.578   1.0789   0.0779   0.9999   1
1192.608   1.0342   0.0762   0.9999   1
1192.638   1.0384   0.0763   0.9999   1
1192.668   1.0859   0.0780   0.9999   1
1192.698   0.9666   0.0738   0.9999   1
1192.727   1.0002   0.0749   0.9999   1
1192.757   1.0660   0.0772   0.9999   1
1192.787   1.0049   0.0751   0.9999   1
1192.817   1.0937   0.0782   0.9999   1
1192.847   1.0636   0.0771   0.9999   1
1192.877   1.0335   0.0761   0.9998   1
1192.907   1.0251   0.0758   0.9998   1
1192.937   0.9204   0.0719   0.9998   1
1192.967   1.0138   0.0753   0.9997   1
1192.996   0.9352   0.0726   0.9995   1
1193.026   0.9695   0.0737   0.9986   1
1193.056   0.9039   0.0714   0.9946   1
1193.086   0.7728   0.0664   0.9803   1
1193.116   0.7259   0.0645   0.9362   1
1193.146   0.6379   0.0608   0.8365   1
1193.176   0.5172   0.0551   0.6635   1
1193.206   0.3468   0.0456   0.4448   1
1193.235   0.2209   0.0376   0.2460   1
1193.265   0.1418   0.0311   0.1181   1
1193.295   0.1454   0.0316   0.0625   1
1193.325   0.1578   0.0327   0.0599   1
1193.355   0.1829   0.0336   0.1118   1
1193.385   0.2836   0.0416   0.2344   1
1193.415   0.4168   0.0499   0.4269   1
1193.445   0.5465   0.0562   0.6447   1
1193.474   0.6739   0.0620   0.8203   1
1193.504   0.7990   0.0667   0.9233   1
1193.534   0.8641   0.0696   0.9642   1
1193.564   0.8767   0.0695   0.9740   1
1193.594   0.9281   0.0718   0.9706   1
1193.624   1.0058   0.0748   0.9617   1
1193.654   0.9504   0.0728   0.9501   1
1193.684   0.9058   0.0711   0.9366   1
1193.713   0.8766   0.0699   0.9217   1
1193.743   0.8758   0.0701   0.9059   1
1193.773   0.9953   0.0742   0.8902   1
1193.803   0.9228   0.0716   0.8755   1
1193.833   0.9027   0.0709   0.8625   1
1193.863   0.8371   0.0684   0.8523   1
1193.893   0.7611   0.0650   0.8456   1
1193.923   0.7559   0.0654   0.8426   1
1193.953   0.8300   0.0682   0.8440   1
1193.982   0.8377   0.0685   0.8491   1
1194.012   0.7520   0.0651   0.8561   1
1194.042   0.8648   0.0695   0.8508   1
1194.072   0.7569   0.0652   0.8079   1
1194.102   0.6962   0.0628   0.7586   1
1194.132   0.8003   0.0670   0.7981   1
1194.162   0.9069   0.0710   0.8854   1
1194.192   0.9562   0.0727   0.9375   1
1194.221   0.9310   0.0720   0.9571   1
1194.251   1.0354   0.0758   0.9684   1
1194.281   1.0997   0.0781   0.9771   1
1194.311   1.0707   0.0771   0.9838   1
1194.341   1.0904   0.0779   0.9889   1
1194.371   1.0550   0.0769   0.9926   1
1194.401   1.0412   0.0761   0.9952   0
1194.431   1.0494   0.0765   0.9970   0
1194.460   1.0435   0.0762   0.9981   0
1194.490   1.1047   0.0781   0.9989   0
1194.520   0.9747   0.0736   0.9993   0
1194.550   0.9161   0.0716   0.9996   0
1194.580   0.9657   0.0735   0.9998   0
1194.610   0.9087   0.0714   0.9999   0
1194.640   0.8820   0.0705   0.9999   0
1194.670   0.8936   0.0702   0.9999   0
1194.699   0.9261   0.0717   1.0000   0
1194.729   0.9470   0.0726   1.0000   0
1194.759   0.9619   0.0728   1.0000   0
1194.789   0.9913   0.0738   1.0000   0
1194.819   1.0245   0.0749   1.0000   0
1194.849   0.9554   0.0725   1.0000   0
1194.879   1.0260   0.0749   1.0000   0
1194.909   1.0499   0.0755   1.0000   0
1194.939   1.0013   0.0741   1.0000   0
1194.968   1.0139   0.0745   1.0000   0
1194.998   0.9970   0.0739   1.0000   0
1195.028   0.9961   0.0736   1.0000   0
1195.058   1.0141   0.0743   1.0000   0
1195.088   1.0395   0.0752   1.0000   0
1195.118   1.0438   0.0754   1.0000   0
1195.148   1.1097   0.0775   1.0000   0
1195.178   1.0549   0.0756   1.0000   0
1195.207   1.0442   0.0753   1.0000   0
1195.237   1.0234   0.0746   1.0000   0
1195.267   1.0741   0.0763   1.0000   0
1195.297   1.0393   0.0748   1.0000   1
1195.327   1.1343   0.0783   1.0000   1
1195.357   1.1170   0.0776   1.0000   1
1195.387   1.0257   0.0746   1.0000   1
1195.417   1.0800   0.0765   1.0000   1
1195.446   1.0523   0.0755   1.0000   1
1195.476   0.9767   0.0727   1.0000   1
1195.506   0.9791   0.0728   1.0000   1
1195.536   1.0153   0.0741   1.0000   1
1195.566   1.0452   0.0750   1.0000   1
1195.596   1.0267   0.0746   1.0000   1
1195.626   0.9875   0.0733   1.0000   1
1195.656   0.9731   0.0728   1.0000   1
1195.685   1.0293   0.0746   1.0000   1
1195.715   1.0437   0.0751   1.0000   1
1195.745   1.0515   0.0753   1.0000   1
1195.775   1.0875   0.0763   1.0000   1
1195.805   0.9843   0.0730   1.0000   1
1195.835   0.9886   0.0732   1.0000   1
1195.865   1.0640   0.0757   1.0000   1
1195.895   0.9909   0.0733   1.0000   1
1195.925   1.0467   0.0751   1.0000   1
1195.954   1.0898   0.0765   1.0000   1
1195.984   1.0336   0.0747   1.0000   1
1196.014   1.0302   0.0746   1.0000   1
1196.044   1.0134   0.0740   1.0000   1
1196.074   0.9977   0.0733   1.0000   1
1196.104   0.9840   0.0728   1.0000   1
1196.134   1.0706   0.0759   1.0000   1
1196.164   0.9905   0.0731   1.0000   1
1196.193   1.0481   0.0750   1.0000   1
1196.223   1.0222   0.0742   1.0000   1
1196.253   0.9464   0.0713   1.0000   1
1196.283   1.0651   0.0755   1.0000   1
1196.313   0.9810   0.0726   1.0000   1
1196.343   1.0234   0.0742   1.0000   1
1196.373   0.9749   0.0725   1.0000   1
1196.403   1.0145   0.0739   1.0000   1
1196.432   1.1082   0.0769   1.0000   1
1196.462   1.0132   0.0737   1.0000   1
1196.492   1.0227   0.0741   1.0000   1
1196.522   1.0356   0.0745   1.0000   1
1196.552   0.9822   0.0727   1.0000   1
1196.582   0.9583   0.0718   1.0000   1
1196.612   1.0016   0.0732   1.0000   1
1196.642   1.0468   0.0749   1.0000   1
1196.672   0.9652   0.0719   1.0000   1
1196.701   1.0053   0.0734   1.0000   1
1196.731   1.0156   0.0737   1.0000   1
1196.761   1.0088   0.0735   1.0000   1
1196.791   1.0158   0.0736   1.0000   1
1196.821   0.9816   0.0726   1.0000   1
1196.851   1.0545   0.0750   1.0000   1
1196.881   1.0118   0.0735   1.0000   1
1196.911   1.0039   0.0733   1.0000   1
1196.940   0.9762   0.0727   1.0000   1
1196.970   1.0413   0.0751   1.0000   1
1197.000   0.9945   0.0728   1.0000   1
1197.030   1.0605   0.0762   1.0000   1
1197.060   0.9687   0.0733   1.0000   1
1197.090   0.9551   0.0724   1.0000   1
1197.120   0.9780   0.0737   1.0000   1
1197.150   0.8743   0.0696   1.0000   1
1197.179   0.9547   0.0724   1.0000   1
1197.209   0.8920   0.0702   1.0000   1
1197.239   0.9536   0.0718   1.0000   1
1197.269   1.0315   0.0752   1.0000   1
