# Best-fit normalized data and profile from VoigtFit
# column 1 : Wavelength
# column 2 : Normalized flux
# column 3 : Normalized error
# column 4 : Best-fit profile
# column 5 : Pixel mask, 1=included, 0=excluded
1204.111   1.0593   0.0741   1.0000   1
1204.141   0.9805   0.0715   1.0000   1
1204.171   0.9753   0.0713   1.0000   1
1204.201   0.9927   0.0719   1.0000   1
1204.231   1.0253   0.0730   1.0000   1
1204.261   0.9859   0.0717   1.0000   1
1204.291   0.9410   0.0701   1.0000   1
1204.321   1.0603   0.0742   1.0000   1
1204.351   0.9841   0.0715   1.0000   1
1204.380   1.0166   0.0726   1.0000   1
1204.410   0.9733   0.0712   1.0000   1
1204.440   1.0387   0.0734   1.0000   1
1204.470   1.0464   0.0738   1.0000   1
1204.500   0.9612   0.0709   1.0000   1
1204.530   0.9561   0.0707   1.0000   1
1204.560   0.9684   0.0712   1.0000   1
1204.590   1.0093   0.0721   1.0000   1
1204.619   1.0269   0.0731   1.0000   1
1204.649   1.0729   0.0743   1.0000   1
1204.679   1.0131   0.0728   1.0000   1
1204.709   1.0045   0.0724   1.0000   1
1204.739   1.0165   0.0725   1.0000   1
1204.769   1.0314   0.0734   1.0000   1
1204.799   1.0415   0.0734   1.0000   1
1204.829   1.0094   0.0718   1.0000   1
1204.859   1.0160   0.0729   1.0000   1
1204.888   1.0151   0.0729   1.0000   1
1204.918   0.9928   0.0720   1.0000   1
1204.948   0.9583   0.0709   1.0000   1
1204.978   0.9986   0.0723   1.0000   1
1205.008   1.0116   0.0727   1.0000   1
1205.038   1.0137   0.0729   1.0000   1
1205.068   0.9325   0.0701   1.0000   1
1205.098   1.0185   0.0731   1.0000   1
1205.127   0.9543   0.0709   1.0000   1
1205.157   1.0296   0.0733   1.0000   1
1205.187   1.0190   0.0730   1.0000   1
1205.217   1.0326   0.0736   1.0000   1
1205.247   1.0067   0.0727   1.0000   1
1205.277   1.0724   0.0747   1.0000   1
1205.307   1.0731   0.0744   1.0000   1
1205.337   1.0359   0.0737   1.0000   1
1205.366   1.0099   0.0730   1.0000   1
1205.396   0.9105   0.0698   1.0000   1
1205.426   0.9786   0.0730   1.0000   1
1205.456   1.0199   0.0746   1.0000   1
1205.486   1.0016   0.0742   1.0000   1
1205.516   1.0168   0.0742   1.0000   1
1205.546   0.9963   0.0732   1.0000   1
1205.576   0.9910   0.0721   1.0000   1
1205.605   1.0011   0.0731   1.0000   1
1205.635   1.0170   0.0742   1.0000   1
1205.665   0.9985   0.0732   1.0000   1
1205.695   1.0133   0.0739   1.0000   1
1205.725   0.9488   0.0720   1.0000   1
1205.755   0.8955   0.0697   1.0000   1
1205.785   0.9414   0.0713   0.9999   1
1205.815   1.0007   0.0733   0.9999   1
1205.845   0.9417   0.0711   0.9999   1
1205.874   1.0270   0.0740   0.9999   1
1205.904   1.0179   0.0735   0.9999   1
1205.934   1.0158   0.0733   0.9999   1
1205.964   1.0142   0.0731   0.9999   1
1205.994   0.9616   0.0713   0.9999   1
1206.024   0.9810   0.0721   0.9998   1
1206.054   0.9775   0.0720   0.9996   1
1206.084   1.0023   0.0727   0.9990   1
1206.113   1.0254   0.0736   0.9975   1
1206.143   0.9742   0.0719   0.9934   1
1206.173   0.9235   0.0701   0.9839   1
1206.203   0.9639   0.0716   0.9627   1
1206.233   0.9114   0.0697   0.9216   1
1206.263   0.9097   0.0695   0.8509   1
1206.293   0.7417   0.0634   0.7454   1
1206.323   0.5940   0.0573   0.6089   1
1206.352   0.4528   0.0505   0.4583   1
1206.382   0.3255   0.0433   0.3174   1
1206.412   0.1874   0.0347   0.2070   1
1206.442   0.1316   0.0285   0.1330   1
1206.472   0.1076   0.0278   0.0908   1
1206.502   0.0839   0.0239   0.0733   1
1206.532   0.0877   0.0250   0.0757   1
1206.562   0.0996   0.0256   0.0985   1
1206.592   0.1317   0.0301   0.1478   1
1206.621   0.1826   0.0344   0.2321   1
1206.651   0.3754   0.0464   0.3515   1
1206.681   0.5818   0.0572   0.4945   1
1206.711   0.6204   0.0592   0.6373   1
1206.741   0.7596   0.0651   0.7519   1
1206.771   0.7720   0.0659   0.8191   1
1206.801   0.8586   0.0690   0.8351   1
1206.831   0.8482   0.0688   0.8172   1
1206.860   0.7765   0.0658   0.7926   1
1206.890   0.7540   0.0646   0.7836   1
1206.920   0.8184   0.0667   0.7971   1
1206.950   0.8513   0.0677   0.8198   1
1206.980   0.7926   0.0655   0.8241   1
1207.010   0.7859   0.0654   0.7818   1
1207.040   0.6672   0.0607   0.6901   1
1207.070   0.6107   0.0580   0.5753   1
1207.100   0.4815   0.0518   0.4751   1
1207.129   0.3932   0.0477   0.4181   1
1207.159   0.4084   0.0481   0.4114   1
1207.189   0.4603   0.0509   0.4365   1
1207.219   0.4538   0.0510   0.4500   1
1207.249   0.3904   0.0475   0.4165   1
1207.279   0.3564   0.0454   0.3466   1
1207.309   0.3000   0.0423   0.2877   1
1207.339   0.2813   0.0410   0.2872   1
1207.368   0.3651   0.0460   0.3681   1
1207.398   0.5013   0.0531   0.5219   1
1207.428   0.7493   0.0640   0.7027   1
1207.458   0.8596   0.0670   0.8514   1
1207.488   0.8968   0.0690   0.9412   1
1207.518   0.9845   0.0727   0.9817   1
1207.548   0.9344   0.0711   0.9955   1
1207.578   1.0013   0.0732   0.9990   1
1207.607   0.9732   0.0724   0.9997   1
1207.637   0.9630   0.0720   0.9999   1
1207.667   0.9945   0.0731   0.9999   1
1207.697   1.0311   0.0744   0.9999   1
1207.727   0.9415   0.0713   0.9999   1
1207.757   1.0160   0.0735   0.9999   1
1207.787   1.0131   0.0737   0.9999   1
1207.817   0.9718   0.0720   0.9999   1
1207.846   0.9891   0.0730   0.9999   1
1207.876   1.0821   0.0759   1.0000   1
1207.906   1.0443   0.0751   1.0000   1
1207.936   0.9922   0.0737   1.0000   1
1207.966   0.9768   0.0734   1.0000   1
1207.996   0.9953   0.0744   1.0000   1
1208.026   0.9905   0.0733   1.0000   1
1208.056   0.9839   0.0736   1.0000   1
1208.086   0.9964   0.0741   1.0000   1
1208.115   0.9767   0.0736   1.0000   1
1208.145   1.0260   0.0755   1.0000   1
1208.175   1.0176   0.0750   1.0000   1
1208.205   1.0571   0.0762   1.0000   1
1208.235   1.0151   0.0752   1.0000   1
1208.265   0.9808   0.0739   1.0000   1
1208.295   1.0917   0.0776   1.0000   1
1208.325   1.0512   0.0760   1.0000   1
1208.354   1.0233   0.0746   1.0000   1
1208.384   0.9863   0.0732   1.0000   1
1208.414   1.0002   0.0737   1.0000   1
1208.444   1.0391   0.0748   1.0000   1
1208.474   0.9545   0.0714   1.0000   1
1208.504   0.9457   0.0717   1.0000   1
1208.534   0.9739   0.0727   1.0000   1
1208.564   0.9606   0.0722   1.0000   1
1208.593   0.9842   0.0731   1.0000   1
1208.623   0.9757   0.0728   1.0000   1
1208.653   1.0050   0.0739   1.0000   1
1208.683   1.0360   0.0748   1.0000   1
1208.713   1.0604   0.0758   1.0000   1
1208.743   1.0330   0.0748   1.0000   1
1208.773   0.9781   0.0726   1.0000   1
1208.803   1.0071   0.0741   1.0000   1
1208.833   1.0292   0.0750   1.0000   1
1208.862   0.9863   0.0738   1.0000   1
1208.892   1.0259   0.0756   1.0000   1
