# Best-fit normalized data and profile from VoigtFit
# column 1 : Wavelength
# column 2 : Normalized flux
# column 3 : Normalized error
# column 4 : Best-fit profile
# column 5 : Pixel mask, 1=included, 0=excluded
1543.052   1.0084   0.2778   1.0000   1
1543.089   0.9209   0.2690   1.0000   1
1543.125   0.9330   0.2700   1.0000   1
1543.162   0.9211   0.2686   1.0000   1
1543.199   1.0335   0.2800   1.0000   1
1543.236   1.0459   0.2809   1.0000   1
1543.272   0.9212   0.2669   1.0000   1
1543.309   0.8459   0.2625   1.0000   1
1543.346   1.1208   0.2869   1.0000   1
1543.382   1.1088   0.2866   1.0000   1
1543.419   0.8955   0.2646   1.0000   1
1543.456   1.0088   0.2775   1.0000   1
1543.492   0.8835   0.2664   1.0000   1
1543.529   1.2332   0.2966   1.0000   1
1543.566   1.0468   0.2815   1.0000   1
1543.603   1.0837   0.2848   1.0000   1
1543.639   0.9967   0.2768   1.0000   1
1543.676   0.9593   0.2736   1.0000   1
1543.713   1.1224   0.2880   1.0000   1
1543.749   0.9224   0.2690   1.0000   1
1543.786   0.9956   0.2752   1.0000   1
1543.823   0.8715   0.2643   1.0000   1
1543.860   1.1216   0.2881   1.0000   1
1543.896   0.8968   0.2659   1.0000   1
1543.933   1.2982   0.3028   1.0000   1
1543.970   1.0364   0.2802   1.0000   1
1544.006   1.0240   0.2787   1.0000   1
1544.043   1.0362   0.2802   1.0000   1
1544.080   1.0868   0.2848   1.0000   1
1544.117   1.0753   0.2843   1.0000   1
1544.153   0.9251   0.2703   1.0000   1
1544.190   1.1136   0.2884   1.0000   1
1544.227   0.9378   0.2712   1.0000   1
1544.263   0.9880   0.2756   1.0000   1
1544.300   0.9881   0.2765   1.0000   1
1544.337   1.1510   0.2914   1.0000   1
1544.374   0.9252   0.2710   1.0000   1
1544.410   0.8074   0.2613   1.0000   1
1544.447   1.1312   0.2930   1.0000   1
1544.484   0.9817   0.2815   1.0000   1
1544.520   0.9055   0.2746   1.0000   1
1544.557   0.9144   0.2744   1.0000   1
1544.594   0.9778   0.2811   1.0000   1
1544.631   0.9777   0.2788   1.0000   1
1544.667   0.9894   0.2832   1.0000   1
1544.704   0.9841   0.2851   1.0000   1
1544.741   1.0488   0.2916   1.0000   1
1544.777   0.9252   0.2794   1.0000   1
1544.814   1.1340   0.2998   1.0000   1
1544.851   1.0776   0.2936   1.0000   1
1544.888   0.8595   0.2696   1.0000   1
1544.924   0.9230   0.2751   1.0000   1
1544.961   0.8661   0.2695   1.0000   1
1544.998   1.2088   0.3029   1.0000   1
1545.034   1.1447   0.2967   1.0000   1
1545.071   0.8892   0.2732   1.0000   1
1545.108   0.9175   0.2742   1.0000   1
1545.145   0.9481   0.2777   1.0000   1
1545.181   0.9870   0.2806   1.0000   1
1545.218   1.1031   0.2882   1.0000   1
1545.255   0.9548   0.2740   1.0000   1
1545.291   1.0936   0.2861   1.0000   1
1545.328   1.0813   0.2863   1.0000   1
1545.365   1.2454   0.3003   1.0000   1
1545.402   1.0441   0.2832   1.0000   1
1545.438   1.0818   0.2861   1.0000   1
1545.475   1.0821   0.2849   1.0000   1
1545.512   1.2710   0.3015   1.0000   1
1545.548   1.1585   0.2926   1.0000   1
1545.585   1.1715   0.2940   1.0000   1
1545.622   0.9318   0.2727   1.0000   1
1545.658   1.0075   0.2784   1.0000   1
1545.695   0.9573   0.2747   1.0000   1
1545.732   1.1219   0.2894   1.0000   1
1545.769   1.0584   0.2846   1.0000   1
1545.805   1.1225   0.2905   1.0000   1
1545.842   0.9080   0.2708   1.0000   1
1545.879   1.0599   0.2849   1.0000   1
1545.916   1.0220   0.2807   1.0000   1
1545.952   0.9587   0.2736   1.0000   1
1545.989   0.9974   0.2793   1.0000   1
1546.026   0.8203   0.2600   1.0000   1
1546.062   1.0099   0.2802   1.0000   1
1546.099   0.9467   0.2736   1.0000   1
1546.136   1.2121   0.2978   1.0000   1
1546.172   1.1114   0.2883   1.0000   1
1546.209   1.0990   0.2885   1.0000   1
1546.246   0.9227   0.2712   1.0000   1
1546.283   1.0887   0.2872   1.0000   1
1546.319   1.1647   0.2940   1.0000   1
1546.356   0.9243   0.2723   1.0000   1
1546.393   0.8607   0.2657   1.0000   1
1546.429   0.7592   0.2560   1.0000   1
1546.466   1.0891   0.2879   1.0000   1
1546.503   0.9754   0.2774   1.0000   1
1546.540   1.0639   0.2855   1.0000   1
1546.576   1.1149   0.2899   1.0000   1
1546.613   0.9357   0.2737   1.0000   1
1546.650   0.9107   0.2713   1.0000   1
1546.686   1.0631   0.2843   1.0000   1
1546.723   0.9368   0.2745   1.0000   1
1546.760   1.1528   0.2925   1.0000   1
1546.797   0.9758   0.2770   1.0000   1
1546.833   0.9763   0.2777   1.0000   1
1546.870   0.9005   0.2703   1.0000   1
1546.907   1.0406   0.2833   1.0000   1
1546.943   0.8872   0.2643   1.0000   1
1546.980   1.1669   0.2948   1.0000   1
1547.017   0.9258   0.2732   1.0000   1
1547.054   1.1418   0.2931   1.0000   1
1547.090   0.8623   0.2669   1.0000   1
1547.127   0.8624   0.2664   1.0000   1
1547.164   0.8746   0.2685   1.0000   1
1547.200   0.9764   0.2781   1.0000   1
1547.237   1.0277   0.2812   1.0000   1
1547.274   1.0804   0.2873   1.0000   1
1547.311   0.7868   0.2591   0.9999   1
1547.347   0.7360   0.2544   0.9998   1
1547.384   1.0927   0.2891   0.9996   1
1547.421   1.1184   0.2911   0.9989   1
1547.457   0.7616   0.2549   0.9973   1
1547.494   1.2204   0.2990   0.9937   1
1547.531   0.7492   0.2551   0.9864   1
1547.568   0.9149   0.2723   0.9723   1
1547.604   0.7622   0.2572   0.9460   1
1547.641   0.8129   0.2601   0.9024   1
1547.678   0.8257   0.2643   0.8356   1
1547.714   0.6858   0.2491   0.7414   1
1547.751   0.7626   0.2554   0.6246   1
1547.788   0.4183   0.2159   0.4948   1
1547.825   0.3289   0.2027   0.3680   1
1547.861   0.2397   0.1890   0.2584   1
1547.898   0.2014   0.1806   0.1746   1
1547.935   0.0995   0.1624   0.1180   1
1547.971   0.0867   0.1612   0.0830   1
1548.008   0.1247   0.1684   0.0645   1
1548.045   0.1115   0.1665   0.0583   1
1548.082   0.0220   0.1472   0.0621   1
1548.118   0.0858   0.1614   0.0770   1
1548.155   0.1244   0.1691   0.1061   1
1548.192   0.1884   0.1780   0.1528   1
1548.228   0.2779   0.1961   0.2201   1
1548.265   0.3040   0.1995   0.3055   1
1548.302   0.3806   0.2112   0.3998   1
1548.338   0.3696   0.2105   0.4898   1
1548.375   0.5385   0.2335   0.5625   1
1548.412   0.6800   0.2514   0.6115   1
1548.449   0.7218   0.2571   0.6360   1
1548.485   0.6619   0.2512   0.6416   1
1548.522   0.6641   0.2513   0.6355   1
1548.559   0.6603   0.2505   0.6237   1
1548.595   0.4942   0.2297   0.6111   1
1548.632   0.4789   0.2275   0.6007   1
1548.669   0.7488   0.2611   0.5946   1
1548.706   0.5128   0.2318   0.5934   1
1548.742   0.6360   0.2481   0.5976   1
1548.779   0.6367   0.2478   0.6075   1
1548.816   0.5823   0.2428   0.6226   1
1548.852   0.6009   0.2429   0.6425   1
1548.889   0.5787   0.2384   0.6667   1
1548.926   0.6525   0.2465   0.6943   1
1548.963   0.7939   0.2618   0.7244   1
1548.999   0.7684   0.2583   0.7561   1
1549.036   0.8321   0.2651   0.7880   1
1549.073   0.7932   0.2606   0.8193   1
1549.109   0.7551   0.2568   0.8490   1
1549.146   0.9999   0.2823   0.8763   1
1549.183   0.9481   0.2762   0.9008   1
1549.220   0.9878   0.2804   0.9219   1
1549.256   0.8591   0.2680   0.9398   1
1549.293   0.9110   0.2733   0.9546   1
1549.330   0.9250   0.2752   0.9663   1
1549.366   0.9896   0.2811   0.9756   1
1549.403   0.9509   0.2774   0.9826   1
1549.440   1.0151   0.2839   0.9878   1
1549.477   1.2217   0.3016   0.9917   1
1549.513   1.1312   0.2944   0.9944   1
1549.550   1.1052   0.2923   0.9963   1
1549.587   1.1954   0.2985   0.9976   1
1549.623   0.8991   0.2721   0.9985   1
1549.660   1.0152   0.2836   0.9990   1
1549.697   1.0282   0.2845   0.9994   1
1549.734   0.9384   0.2766   0.9996   1
1549.770   1.0290   0.2847   0.9998   1
1549.807   1.0170   0.2827   0.9999   1
1549.844   0.9134   0.2739   0.9999   1
1549.880   1.0942   0.2914   0.9999   1
1549.917   1.0045   0.2796   0.9999   1
1549.954   1.0432   0.2861   0.9998   1
1549.991   1.1858   0.2954   0.9996   1
1550.027   1.2109   0.3016   0.9990   1
1550.064   0.7726   0.2596   0.9977   1
1550.101   1.1087   0.2922   0.9949   1
1550.137   1.1611   0.2971   0.9893   1
1550.174   0.8630   0.2697   0.9786   1
1550.211   1.1352   0.2951   0.9597   1
1550.248   0.8638   0.2692   0.9290   1
1550.284   0.9287   0.2736   0.8822   1
1550.321   0.9676   0.2786   0.8168   1
1550.358   0.8252   0.2632   0.7341   1
1550.394   0.6054   0.2417   0.6385   1
1550.431   0.6053   0.2425   0.5386   1
1550.468   0.5276   0.2318   0.4445   1
1550.505   0.3460   0.2060   0.3645   1
1550.541   0.2551   0.1923   0.3038   1
1550.578   0.3072   0.2021   0.2634   1
1550.615   0.1904   0.1825   0.2436   1
1550.651   0.2036   0.1823   0.2433   1
1550.688   0.3728   0.2116   0.2618   1
1550.725   0.2040   0.1858   0.3000   1
1550.761   0.3079   0.2021   0.3568   1
1550.798   0.3449   0.2095   0.4292   1
1550.835   0.5656   0.2396   0.5118   1
1550.872   0.7595   0.2626   0.5952   1
1550.908   0.7788   0.2664   0.6705   1
1550.945   0.7701   0.2658   0.7297   1
1550.982   0.7371   0.2616   0.7700   1
1551.019   0.7747   0.2650   0.7927   1
1551.055   0.6901   0.2547   0.8008   1
1551.092   0.7188   0.2584   0.7995   1
1551.129   0.7814   0.2672   0.7932   1
1551.165   0.9239   0.2815   0.7851   1
1551.202   0.7439   0.2629   0.7777   1
1551.239   0.8666   0.2762   0.7725   1
1551.275   0.8333   0.2721   0.7703   1
1551.312   0.9379   0.2812   0.7716   1
1551.349   0.7723   0.2610   0.7763   1
1551.386   0.8185   0.2648   0.7845   1
1551.422   0.7794   0.2618   0.7957   1
1551.459   0.7274   0.2559   0.8095   1
1551.496   1.0537   0.2893   0.8256   1
1551.532   0.8583   0.2694   0.8430   1
1551.569   0.7410   0.2575   0.8611   1
1551.606   0.9371   0.2771   0.8795   1
1551.643   0.9633   0.2800   0.8973   1
1551.679   0.9628   0.2805   0.9142   1
1551.716   1.0157   0.2855   0.9296   1
1551.753   1.0163   0.2854   0.9433   1
1551.789   0.9248   0.2763   0.9553   1
1551.826   0.7818   0.2620   0.9654   1
1551.863   0.8472   0.2685   0.9737   1
1551.900   0.9001   0.2753   0.9804   1
1551.936   0.8347   0.2682   0.9857   1
1551.973   0.9525   0.2789   0.9897   1
1552.010   0.8750   0.2728   0.9928   1
1552.046   1.0982   0.2933   0.9950   1
1552.083   1.0860   0.2918   0.9966   1
1552.120   1.0068   0.2852   0.9978   1
1552.157   1.2563   0.3073   0.9985   1
1552.193   1.0334   0.2884   0.9991   1
1552.230   0.8628   0.2710   0.9994   1
1552.267   1.0072   0.2840   0.9996   1
1552.303   1.1516   0.2981   0.9998   1
1552.340   1.2435   0.3069   0.9999   1
1552.377   1.0604   0.2897   0.9999   1
1552.414   0.9952   0.2850   1.0000   1
1552.450   0.9822   0.2823   1.0000   1
1552.487   0.9563   0.2801   1.0000   1
1552.524   1.0750   0.2926   1.0000   1
1552.560   0.9040   0.2760   1.0000   1
1552.597   0.8776   0.2737   1.0000   1
1552.634   1.0888   0.2934   1.0000   1
1552.671   0.9309   0.2783   1.0000   1
1552.707   0.9705   0.2823   1.0000   1
1552.744   0.8920   0.2750   1.0000   1
1552.781   0.8393   0.2698   1.0000   1
1552.817   1.0900   0.2940   1.0000   1
1552.854   1.0493   0.2889   1.0000   1
1552.891   0.7996   0.2649   1.0000   1
1552.928   0.9314   0.2788   1.0000   1
1552.964   0.9197   0.2771   1.0000   1
1553.001   0.8415   0.2689   1.0000   1
1553.038   1.0925   0.2944   1.0000   1
1553.074   0.8024   0.2657   1.0000   1
1553.111   0.7894   0.2635   1.0000   1
1553.148   1.2124   0.3045   1.0000   1
1553.185   0.8684   0.2730   1.0000   1
1553.221   1.1050   0.2946   1.0000   1
1553.258   1.0528   0.2903   1.0000   1
1553.295   1.0397   0.2895   1.0000   1
1553.331   0.8421   0.2700   1.0000   1
1553.368   1.0670   0.2927   1.0000   1
1553.405   0.9488   0.2803   1.0000   1
1553.441   0.8568   0.2721   1.0000   1
1553.478   1.1871   0.3031   1.0000   1
1553.515   0.9631   0.2817   1.0000   1
1553.552   1.1086   0.2952   1.0000   1
1553.588   1.0026   0.2860   1.0000   1
1553.625   1.0700   0.2931   1.0000   1
1553.662   1.0307   0.2894   1.0000   1
1553.698   1.0045   0.2869   1.0000   1
1553.735   0.9114   0.2775   1.0000   1
1553.772   1.1502   0.3001   1.0000   1
1553.809   1.0314   0.2883   1.0000   1
1553.845   1.0712   0.2918   1.0000   1
1553.882   0.8594   0.2707   1.0000   1
1553.919   0.8063   0.2659   1.0000   1
1553.955   1.1516   0.2998   1.0000   1
1553.992   1.1521   0.3005   1.0000   1
1554.029   1.0197   0.2888   1.0000   1
1554.066   0.9941   0.2859   1.0000   1
1554.102   0.8873   0.2761   1.0000   1
1554.139   0.8082   0.2657   1.0000   1
1554.176   1.1004   0.2962   1.0000   1
1554.212   0.9010   0.2776   1.0000   1
1554.249   0.9942   0.2868   1.0000   1
1554.286   1.0079   0.2869   1.0000   1
1554.323   0.9686   0.2838   1.0000   1
1554.359   1.0750   0.2933   1.0000   1
1554.396   0.9688   0.2834   1.0000   1
1554.433   0.8232   0.2679   1.0000   1
1554.469   0.9831   0.2846   1.0000   1
1554.506   0.9839   0.2856   1.0000   1
1554.543   0.9178   0.2790   1.0000   1
1554.580   0.9979   0.2868   1.0000   1
1554.616   0.8783   0.2749   1.0000   1
1554.653   0.9565   0.2864   1.0000   1
1554.690   0.9992   0.2917   1.0000   1
1554.726   1.2461   0.3152   1.0000   1
1554.763   1.0278   0.2956   1.0000   1
1554.800   1.2217   0.3154   1.0000   1
1554.837   1.2822   0.3194   1.0000   1
1554.873   1.0390   0.2969   1.0000   1
1554.910   1.0216   0.2946   1.0000   1
1554.947   0.9064   0.2824   1.0000   1
1554.983   0.9435   0.2907   1.0000   1
1555.020   0.9845   0.2963   1.0000   1
1555.057   1.1739   0.3155   1.0000   1
1555.094   0.9386   0.2915   1.0000   1
1555.130   1.0036   0.2983   1.0000   1
1555.167   1.1936   0.3147   1.0000   1
1555.204   0.9482   0.2880   1.0000   1
1555.240   1.0107   0.2945   1.0000   1
1555.277   0.9392   0.2867   1.0000   1
1555.314   1.2533   0.3137   1.0000   1
1555.351   1.1655   0.3092   1.0000   1
1555.387   1.4001   0.3299   1.0000   1
1555.424   1.0168   0.2954   1.0000   1
1555.461   1.0939   0.3025   1.0000   1
1555.497   1.2875   0.3178   1.0000   1
1555.534   0.9568   0.2852   1.0000   1
1555.571   0.9661   0.2850   1.0000   1
1555.608   0.8584   0.2741   1.0000   1
1555.644   0.9942   0.2878   1.0000   1
1555.681   0.9677   0.2857   1.0000   1
1555.718   1.1296   0.3011   1.0000   1
1555.754   0.8877   0.2781   1.0000   1
1555.791   0.8745   0.2767   1.0000   1
1555.828   0.9555   0.2839   1.0000   1
1555.864   1.0903   0.2975   1.0000   1
1555.901   0.9960   0.2881   1.0000   1
1555.938   0.8620   0.2758   1.0000   1
