# Best-fit normalized data and profile from VoigtFit
# column 1 : Wavelength
# column 2 : Normalized flux
# column 3 : Normalized error
# column 4 : Best-fit profile
# column 5 : Pixel mask, 1=included, 0=excluded
1330.110   1.0949   0.0763   1.0000   1
1330.140   1.0441   0.0746   1.0000   1
1330.170   0.9704   0.0722   1.0000   1
1330.200   1.0549   0.0750   1.0000   1
1330.230   1.0333   0.0741   1.0000   1
1330.260   1.0664   0.0753   1.0000   1
1330.290   0.9674   0.0720   1.0000   1
1330.320   0.9868   0.0727   1.0000   1
1330.350   0.9091   0.0700   1.0000   1
1330.380   0.9946   0.0730   1.0000   1
1330.409   0.9796   0.0725   1.0000   1
1330.439   1.0289   0.0741   1.0000   1
1330.469   1.0423   0.0746   1.0000   1
1330.499   1.0064   0.0734   1.0000   1
1330.529   1.0157   0.0738   1.0000   1
1330.559   1.0009   0.0730   1.0000   1
1330.589   1.0226   0.0737   1.0000   1
1330.619   0.9678   0.0719   1.0000   1
1330.649   0.9882   0.0728   1.0000   1
1330.679   0.9922   0.0729   1.0000   1
1330.709   1.0272   0.0741   1.0000   1
1330.739   1.0221   0.0738   1.0000   1
1330.769   0.9696   0.0722   1.0000   1
1330.799   1.0757   0.0756   1.0000   1
1330.829   1.0099   0.0735   1.0000   1
1330.859   1.0066   0.0735   1.0000   1
1330.888   1.0583   0.0751   1.0000   1
1330.918   1.0286   0.0742   1.0000   1
1330.948   0.9712   0.0721   1.0000   1
1330.978   1.0419   0.0746   1.0000   1
1331.008   0.9940   0.0729   1.0000   1
1331.038   1.0060   0.0734   1.0000   1
1331.068   1.0306   0.0742   1.0000   1
1331.098   0.9981   0.0731   1.0000   1
1331.128   1.0248   0.0741   1.0000   1
1331.158   1.0508   0.0749   1.0000   1
1331.188   1.0644   0.0754   1.0000   1
1331.218   1.0458   0.0747   1.0000   1
1331.248   0.9982   0.0732   1.0000   1
1331.278   0.9984   0.0731   1.0000   1
1331.308   0.9798   0.0725   1.0000   1
1331.337   1.0075   0.0734   1.0000   1
1331.367   1.0138   0.0736   1.0000   1
1331.397   1.0296   0.0742   1.0000   1
1331.427   0.9758   0.0724   1.0000   1
1331.457   1.0704   0.0756   1.0000   1
1331.487   0.9822   0.0726   1.0000   1
1331.517   1.0391   0.0746   1.0000   1
1331.547   1.0559   0.0750   1.0000   1
1331.577   1.0437   0.0747   1.0000   1
1331.607   1.0349   0.0744   1.0000   1
1331.637   1.0736   0.0756   1.0000   1
1331.667   0.9953   0.0731   1.0000   1
1331.697   1.0358   0.0745   1.0000   1
1331.727   0.9792   0.0725   1.0000   1
1331.757   0.9864   0.0728   1.0000   1
1331.787   0.9464   0.0713   1.0000   1
1331.816   0.9815   0.0724   1.0000   1
1331.846   0.9729   0.0723   1.0000   1
1331.876   0.9617   0.0720   1.0000   1
1331.906   0.9617   0.0723   1.0000   1
1331.936   1.0342   0.0747   1.0000   1
1331.966   1.0246   0.0748   1.0000   1
1331.996   1.0705   0.0766   1.0000   1
1332.026   1.0019   0.0743   1.0000   1
1332.056   0.9448   0.0726   1.0000   1
1332.086   1.0059   0.0735   1.0000   1
1332.116   0.9881   0.0737   1.0000   1
1332.146   0.9777   0.0736   1.0000   1
1332.176   1.0001   0.0745   1.0000   1
1332.206   0.9711   0.0733   1.0000   1
1332.236   0.9603   0.0730   1.0000   1
1332.265   0.9500   0.0725   1.0000   1
1332.295   0.9996   0.0740   1.0000   1
1332.325   1.0249   0.0745   1.0000   1
1332.355   0.9396   0.0712   1.0000   1
1332.385   0.9196   0.0702   1.0000   1
1332.415   0.9810   0.0726   1.0000   1
1332.445   0.9587   0.0718   1.0000   1
1332.475   1.0826   0.0760   1.0000   1
1332.505   1.0663   0.0754   1.0000   1
1332.535   0.9702   0.0722   1.0000   1
1332.565   0.9711   0.0720   1.0000   1
1332.595   0.9924   0.0730   1.0000   1
1332.625   1.0034   0.0734   1.0000   1
1332.655   1.0271   0.0739   1.0000   1
1332.685   0.9853   0.0728   1.0000   1
1332.715   0.9591   0.0718   1.0000   1
1332.744   0.9724   0.0722   1.0000   1
1332.774   1.0376   0.0745   1.0000   1
1332.804   1.0207   0.0738   1.0000   1
1332.834   1.0204   0.0739   1.0000   1
1332.864   1.0550   0.0750   1.0000   1
1332.894   1.0394   0.0745   1.0000   1
1332.924   0.9804   0.0725   1.0000   1
1332.954   0.9796   0.0726   1.0000   1
1332.984   1.0633   0.0753   1.0000   1
1333.014   1.0104   0.0735   1.0000   1
1333.044   1.0182   0.0736   1.0000   1
1333.074   0.9256   0.0707   1.0000   1
1333.104   0.9411   0.0720   1.0000   1
1333.134   0.9888   0.0740   1.0000   1
1333.164   0.9570   0.0732   1.0000   1
1333.193   1.0204   0.0755   1.0000   1
1333.223   1.0291   0.0753   1.0000   1
1333.253   0.9704   0.0731   1.0000   1
1333.283   0.9780   0.0735   1.0000   1
1333.313   1.0136   0.0745   1.0000   1
1333.343   0.9988   0.0737   1.0000   1
1333.373   0.9838   0.0736   1.0000   1
1333.403   0.9739   0.0735   1.0000   1
1333.433   0.9995   0.0743   1.0000   1
1333.463   0.9683   0.0734   1.0000   1
1333.493   0.9433   0.0722   1.0000   1
1333.523   0.9940   0.0737   1.0000   1
1333.553   0.9251   0.0708   1.0000   1
1333.583   0.9317   0.0709   1.0000   1
1333.613   0.9724   0.0723   1.0000   1
1333.642   0.9280   0.0708   1.0000   1
1333.672   0.9607   0.0718   1.0000   1
1333.702   0.9967   0.0731   1.0000   1
1333.732   0.9984   0.0731   1.0000   1
1333.762   0.9063   0.0692   1.0000   1
1333.792   0.9629   0.0720   1.0000   1
1333.822   1.0534   0.0750   1.0000   1
1333.852   1.0339   0.0740   1.0000   1
1333.882   0.9671   0.0722   1.0000   1
1333.912   0.9829   0.0726   1.0000   1
1333.942   1.0117   0.0736   1.0000   1
1333.972   0.9665   0.0720   1.0000   1
1334.002   1.0376   0.0743   1.0000   1
1334.032   0.9797   0.0726   1.0000   1
1334.062   1.0409   0.0746   1.0000   1
1334.091   0.9939   0.0730   0.9999   1
1334.121   1.0290   0.0741   0.9996   1
1334.151   0.9602   0.0718   0.9988   1
1334.181   0.9742   0.0721   0.9964   1
1334.211   0.9498   0.0715   0.9900   1
1334.241   0.9424   0.0712   0.9751   1
1334.271   0.9109   0.0698   0.9443   1
1334.301   0.8451   0.0675   0.8880   1
1334.331   0.7516   0.0639   0.7959   1
1334.361   0.6850   0.0613   0.6697   1
1334.391   0.5169   0.0540   0.5221   1
1334.421   0.3943   0.0463   0.3752   1
1334.451   0.2540   0.0394   0.2535   1
1334.481   0.1760   0.0313   0.1677   1
1334.511   0.1251   0.0279   0.1175   1
1334.541   0.1034   0.0261   0.0975   1
1334.570   0.1060   0.0275   0.1049   1
1334.600   0.1197   0.0275   0.1400   1
1334.630   0.1788   0.0344   0.2083   1
1334.660   0.3079   0.0435   0.3134   1
1334.690   0.4848   0.0527   0.4509   1
1334.720   0.6719   0.0614   0.5994   1
1334.750   0.7394   0.0641   0.7314   1
1334.780   0.7818   0.0659   0.8232   1
1334.810   0.8441   0.0682   0.8599   1
1334.840   0.8484   0.0686   0.8507   1
1334.870   0.8937   0.0707   0.8210   1
1334.900   0.7428   0.0652   0.8012   1
1334.930   0.8141   0.0681   0.8038   1
1334.960   0.7959   0.0673   0.7960   1
1334.989   0.7704   0.0659   0.7351   1
1335.019   0.6095   0.0588   0.6540   1
1335.049   0.6854   0.0615   0.6522   1
1335.079   0.7221   0.0625   0.7162   1
1335.109   0.7051   0.0622   0.7298   1
1335.139   0.6162   0.0583   0.6474   1
1335.169   0.5868   0.0570   0.5243   1
1335.199   0.4322   0.0495   0.4331   1
1335.229   0.3784   0.0467   0.4062   1
1335.259   0.4283   0.0496   0.4409   1
1335.289   0.5470   0.0554   0.5045   1
1335.319   0.5668   0.0561   0.5465   1
1335.349   0.4869   0.0525   0.5368   1
1335.379   0.4839   0.0524   0.4843   1
1335.409   0.4573   0.0507   0.4267   1
1335.438   0.4052   0.0483   0.4012   1
1335.468   0.4147   0.0490   0.4258   1
1335.498   0.4872   0.0525   0.5012   1
1335.528   0.6229   0.0587   0.6142   1
1335.558   0.7458   0.0635   0.7380   1
1335.588   0.8474   0.0674   0.8458   1
1335.618   0.7674   0.0642   0.9224   0
1335.648   0.7239   0.0633   0.9665   0
1335.678   0.6068   0.0585   0.9874   0
1335.708   0.4947   0.0536   0.9959   0
1335.738   0.4540   0.0516   0.9989   0
1335.768   0.5413   0.0559   0.9997   0
1335.798   0.6371   0.0603   0.9999   0
1335.828   0.8195   0.0672   1.0000   0
1335.858   0.9331   0.0716   1.0000   0
1335.887   0.9821   0.0733   1.0000   0
1335.917   1.0018   0.0734   1.0000   0
1335.947   0.9721   0.0730   1.0000   0
1335.977   1.0528   0.0760   1.0000   0
1336.007   0.9765   0.0737   1.0000   1
1336.037   1.0589   0.0760   1.0000   1
1336.067   0.9845   0.0732   1.0000   1
1336.097   1.0302   0.0743   1.0000   1
1336.127   1.0128   0.0736   1.0000   1
1336.157   0.9981   0.0728   1.0000   1
1336.187   1.0326   0.0744   1.0000   1
1336.217   0.9630   0.0720   1.0000   1
1336.247   0.9832   0.0726   1.0000   1
1336.277   1.0206   0.0741   1.0000   1
1336.306   1.0159   0.0739   1.0000   1
1336.336   1.0226   0.0741   1.0000   1
1336.366   1.0485   0.0750   1.0000   1
1336.396   1.0608   0.0753   1.0000   1
1336.426   0.9958   0.0730   1.0000   1
1336.456   1.0184   0.0737   1.0000   1
1336.486   1.0705   0.0757   1.0000   1
1336.516   1.0119   0.0734   1.0000   1
1336.546   1.1213   0.0774   1.0000   1
1336.576   0.9947   0.0731   1.0000   1
1336.606   1.0822   0.0761   1.0000   1
1336.636   1.0611   0.0752   1.0000   1
1336.666   1.0499   0.0751   1.0000   1
1336.696   0.9776   0.0724   1.0000   1
1336.726   0.9238   0.0706   1.0000   1
1336.755   0.9821   0.0727   1.0000   1
1336.785   0.9815   0.0726   1.0000   1
1336.815   0.9694   0.0721   1.0000   1
1336.845   0.9907   0.0729   1.0000   1
1336.875   1.1210   0.0772   1.0000   1
1336.905   1.0253   0.0741   1.0000   1
1336.935   1.0272   0.0739   1.0000   1
1336.965   1.0408   0.0745   1.0000   1
1336.995   0.9380   0.0712   1.0000   1
1337.025   0.9410   0.0713   1.0000   1
1337.055   0.8906   0.0693   1.0000   1
1337.085   0.8614   0.0685   1.0000   1
1337.115   0.8276   0.0671   1.0000   1
1337.145   0.8983   0.0696   1.0000   1
1337.175   0.9523   0.0716   1.0000   1
1337.204   0.9272   0.0708   1.0000   1
1337.234   0.9968   0.0730   1.0000   1
1337.264   0.9661   0.0722   1.0000   1
1337.294   0.9936   0.0732   1.0000   1
1337.324   0.9937   0.0731   1.0000   1
1337.354   1.0312   0.0743   1.0000   1
1337.384   1.0667   0.0754   1.0000   1
1337.414   1.0194   0.0741   1.0000   1
1337.444   0.9512   0.0717   1.0000   1
1337.474   0.9919   0.0727   1.0000   1
1337.504   0.9772   0.0725   1.0000   1
1337.534   0.9845   0.0726   1.0000   1
1337.564   0.9396   0.0714   1.0000   1
1337.594   1.0074   0.0740   1.0000   1
1337.623   1.0722   0.0765   1.0000   1
1337.653   1.0023   0.0740   1.0000   1
1337.683   1.0297   0.0746   1.0000   1
1337.713   1.0010   0.0738   1.0000   1
1337.743   0.9475   0.0720   1.0000   1
1337.773   1.0088   0.0742   1.0000   1
1337.803   0.9968   0.0737   1.0000   1
1337.833   1.0093   0.0741   1.0000   1
1337.863   0.9864   0.0731   1.0000   1
1337.893   0.8824   0.0695   1.0000   1
1337.923   1.0035   0.0735   1.0000   1
1337.953   1.0065   0.0736   1.0000   1
1337.983   0.9817   0.0732   1.0000   1
1338.013   1.0021   0.0736   1.0000   1
1338.042   0.9603   0.0721   1.0000   1
1338.072   1.0050   0.0737   1.0000   1
1338.102   1.0552   0.0752   1.0000   1
1338.132   1.0029   0.0734   1.0000   1
1338.162   1.0716   0.0758   1.0000   1
1338.192   1.0360   0.0746   1.0000   1
1338.222   1.0921   0.0764   1.0000   1
1338.252   1.0528   0.0752   1.0000   1
1338.282   1.0399   0.0747   1.0000   1
1338.312   1.0391   0.0748   1.0000   1
1338.342   0.9898   0.0730   1.0000   1
1338.372   0.9893   0.0730   1.0000   1
1338.402   1.0551   0.0753   1.0000   1
1338.432   0.9440   0.0714   1.0000   1
1338.461   0.9671   0.0719   1.0000   1
1338.491   0.9835   0.0727   1.0000   1
1338.521   1.0056   0.0735   1.0000   1
1338.551   1.0288   0.0743   1.0000   1
1338.581   1.0008   0.0734   1.0000   1
1338.611   1.0505   0.0750   1.0000   1
1338.641   1.1307   0.0777   1.0000   1
1338.671   1.0514   0.0751   1.0000   1
1338.701   1.0505   0.0751   1.0000   1
1338.731   1.0673   0.0757   1.0000   1
1338.761   1.1006   0.0767   1.0000   1
1338.791   1.0145   0.0737   1.0000   1
1338.821   1.0189   0.0741   1.0000   1
1338.851   1.0420   0.0748   1.0000   1
1338.881   0.9761   0.0726   1.0000   1
1338.910   0.9617   0.0721   1.0000   1
1338.940   1.0113   0.0738   1.0000   1
1338.970   1.0284   0.0743   1.0000   1
