# Best-fit normalized data and profile from VoigtFit
# column 1 : Wavelength
# column 2 : Normalized flux
# column 3 : Normalized error
# column 4 : Best-fit profile
# column 5 : Pixel mask, 1=included, 0=excluded
1203.297   1.0799   0.1522   1.0000   1
1203.327   1.0699   0.1514   1.0000   1
1203.357   0.8981   0.1406   1.0000   1
1203.387   0.8492   0.1368   1.0000   1
1203.416   1.0031   0.1465   1.0000   1
1203.446   1.0850   0.1528   1.0000   1
1203.476   0.9291   0.1428   1.0000   1
1203.506   1.1425   0.1561   1.0000   1
1203.536   1.0791   0.1523   1.0000   1
1203.566   1.0506   0.1507   1.0000   1
1203.596   1.0470   0.1506   1.0000   1
1203.626   0.9164   0.1418   1.0000   1
1203.656   1.0500   0.1498   1.0000   1
1203.685   0.9843   0.1466   1.0000   1
1203.715   1.0176   0.1488   1.0000   1
1203.745   1.0492   0.1508   1.0000   1
1203.775   0.9595   0.1451   1.0000   1
1203.805   1.0940   0.1536   1.0000   1
1203.835   1.0301   0.1493   1.0000   1
1203.865   1.0303   0.1488   1.0000   1
1203.895   1.0424   0.1498   1.0000   1
1203.924   0.9611   0.1448   1.0000   1
1203.954   0.9660   0.1454   1.0000   1
1203.984   1.0085   0.1477   1.0000   1
1204.014   1.0778   0.1523   1.0000   1
1204.044   0.9543   0.1449   1.0000   1
1204.074   0.9629   0.1456   1.0000   1
1204.104   1.0014   0.1480   1.0000   1
1204.134   0.9370   0.1437   1.0000   1
1204.163   0.8191   0.1360   1.0000   1
1204.193   0.9443   0.1438   1.0000   1
1204.223   1.0022   0.1480   1.0000   1
1204.253   1.0461   0.1512   1.0000   1
1204.283   1.0729   0.1522   1.0000   1
1204.313   0.8821   0.1403   1.0000   1
1204.343   1.0166   0.1494   1.0000   1
1204.373   0.9906   0.1472   1.0000   1
1204.403   0.9854   0.1475   1.0000   1
1204.432   1.0459   0.1515   1.0000   1
1204.462   1.0485   0.1516   1.0000   1
1204.492   1.0244   0.1501   1.0000   1
1204.522   0.9701   0.1465   1.0000   1
1204.552   1.0690   0.1529   1.0000   1
1204.582   1.1377   0.1573   1.0000   1
1204.612   0.9771   0.1469   1.0000   1
1204.642   1.1065   0.1554   1.0000   1
1204.671   0.8887   0.1409   0.9999   1
1204.701   1.0370   0.1510   0.9999   1
1204.731   1.0015   0.1489   0.9999   1
1204.761   0.9811   0.1475   0.9999   1
1204.791   1.0271   0.1506   0.9999   1
1204.821   0.9909   0.1483   0.9999   1
1204.851   1.0522   0.1520   0.9999   1
1204.881   1.0332   0.1508   0.9999   1
1204.911   1.1323   0.1572   0.9999   1
1204.940   0.9370   0.1445   0.9999   1
1204.970   0.8801   0.1409   0.9999   1
1205.000   0.9925   0.1486   0.9999   1
1205.030   1.0107   0.1497   0.9999   1
1205.060   0.9922   0.1482   0.9999   1
1205.090   0.9978   0.1491   0.9999   1
1205.120   1.0006   0.1492   0.9999   1
1205.150   0.9344   0.1447   0.9999   1
1205.179   1.0266   0.1508   0.9998   1
1205.209   1.0309   0.1511   0.9997   1
1205.239   1.0302   0.1510   0.9995   1
1205.269   0.8749   0.1406   0.9989   1
1205.299   1.0023   0.1491   0.9972   1
1205.329   0.8135   0.1365   0.9928   1
1205.359   0.9879   0.1483   0.9826   1
1205.389   0.8397   0.1384   0.9609   1
1205.419   0.8407   0.1391   0.9193   1
1205.448   0.8876   0.1453   0.8490   1
1205.478   0.8917   0.1474   0.7446   1
1205.508   0.5865   0.1239   0.6106   1
1205.538   0.5155   0.1179   0.4638   1
1205.568   0.2853   0.0907   0.3270   1
1205.598   0.2117   0.0811   0.2191   1
1205.628   0.1259   0.0675   0.1462   1
1205.658   0.1122   0.0636   0.1047   1
1205.687   0.0977   0.0626   0.0873   1
1205.717   0.1174   0.0642   0.0874   1
1205.747   0.1007   0.0631   0.0983   1
1205.777   0.0863   0.0578   0.1104   1
1205.807   0.1065   0.0648   0.1124   1
1205.837   0.1167   0.0654   0.0997   1
1205.867   0.0965   0.0609   0.0804   1
1205.897   0.0406   0.0485   0.0689   1
1205.926   0.1049   0.0612   0.0778   1
1205.956   0.1630   0.0722   0.1165   1
1205.986   0.1408   0.0687   0.1863   1
1206.016   0.2751   0.0878   0.2697   1
1206.046   0.3052   0.0913   0.3311   1
1206.076   0.3740   0.0990   0.3434   1
1206.106   0.3873   0.1005   0.3089   1
1206.136   0.3168   0.0932   0.2500   1
1206.166   0.2274   0.0808   0.1887   1
1206.195   0.1130   0.0638   0.1364   1
1206.225   0.0694   0.0531   0.0961   1
1206.255   0.0433   0.0468   0.0671   1
1206.285   0.0143   0.0387   0.0472   1
1206.315   0.0127   0.0379   0.0340   1
1206.345   0.0178   0.0380   0.0256   1
1206.375   0.0221   0.0401   0.0206   1
1206.405   0.0235   0.0407   0.0179   1
1206.435   0.0176   0.0394   0.0171   1
1206.464   0.0277   0.0433   0.0180   1
1206.494   0.0160   0.0390   0.0207   1
1206.524   0.0759   0.0575   0.0258   1
1206.554   0.0547   0.0479   0.0342   1
1206.584   0.0977   0.0611   0.0461   1
1206.614   0.1072   0.0617   0.0607   1
1206.644   0.0837   0.0589   0.0830   1
1206.674   0.0940   0.0600   0.1261   1
1206.703   0.1510   0.0708   0.1880   1
1206.733   0.2534   0.0844   0.2598   1
1206.763   0.3116   0.0933   0.3409   1
1206.793   0.4970   0.1119   0.4302   1
1206.823   0.6385   0.1248   0.5232   1
1206.853   0.7046   0.1298   0.6142   1
1206.883   0.8203   0.1384   0.6983   1
1206.913   0.7552   0.1336   0.7718   1
1206.942   0.6620   0.1269   0.8329   1
1206.972   0.6486   0.1251   0.8814   1
1207.002   0.8524   0.1405   0.9182   1
1207.032   0.8627   0.1419   0.9451   1
1207.062   0.9312   0.1469   0.9641   1
1207.092   0.9107   0.1452   0.9771   1
1207.122   0.9481   0.1481   0.9857   1
1207.152   0.9527   0.1484   0.9912   1
1207.182   1.0347   0.1537   0.9947   1
1207.211   1.0401   0.1536   0.9969   1
1207.241   0.9831   0.1506   0.9982   1
1207.271   1.0815   0.1571   0.9989   1
1207.301   1.1553   0.1617   0.9994   1
1207.331   1.0393   0.1545   0.9996   1
1207.361   1.0456   0.1548   0.9998   1
1207.391   1.0105   0.1524   0.9998   1
1207.421   0.9848   0.1509   0.9999   1
1207.450   1.0655   0.1562   0.9999   1
1207.480   1.0686   0.1565   0.9999   1
1207.510   1.0085   0.1525   0.9999   1
1207.540   1.0457   0.1550   0.9999   1
1207.570   1.1137   0.1593   0.9999   1
1207.600   0.9720   0.1501   0.9999   1
1207.630   0.8852   0.1442   0.9999   1
1207.660   0.9500   0.1490   0.9999   1
1207.690   1.0644   0.1565   0.9999   1
1207.719   1.0449   0.1552   0.9999   1
1207.749   1.1046   0.1591   1.0000   1
1207.779   0.9434   0.1487   1.0000   1
1207.809   0.8890   0.1446   1.0000   1
1207.839   0.8856   0.1444   1.0000   1
1207.869   1.1276   0.1605   1.0000   1
1207.899   0.9271   0.1476   1.0000   1
1207.929   1.0422   0.1548   1.0000   1
1207.958   1.1158   0.1595   1.0000   1
1207.988   0.9884   0.1513   1.0000   1
1208.018   1.0556   0.1563   1.0000   1
1208.048   1.0932   0.1587   1.0000   1
1208.078   1.1830   0.1640   1.0000   1
1208.108   1.0606   0.1567   1.0000   1
1208.138   1.0589   0.1566   1.0000   1
1208.168   1.0185   0.1539   1.0000   1
1208.198   1.0793   0.1579   1.0000   1
1208.227   1.0770   0.1580   1.0000   1
1208.257   0.9421   0.1489   1.0000   1
1208.287   1.0641   0.1571   1.0000   1
1208.317   1.0596   0.1570   1.0000   1
1208.347   1.0580   0.1569   1.0000   1
1208.377   1.1513   0.1626   1.0000   1
1208.407   0.9702   0.1512   1.0000   1
1208.437   0.9931   0.1526   1.0000   1
1208.466   1.0686   0.1577   1.0000   1
1208.496   0.9454   0.1496   1.0000   1
1208.526   1.0182   0.1545   1.0000   1
1208.556   0.9304   0.1486   1.0000   1
1208.586   0.9197   0.1479   1.0000   1
1208.616   1.1732   0.1643   1.0000   1
1208.646   1.1420   0.1623   1.0000   1
1208.676   1.1285   0.1617   1.0000   1
1208.706   1.0298   0.1555   1.0000   1
1208.735   1.0595   0.1575   1.0000   1
1208.765   1.0180   0.1548   1.0000   1
1208.795   1.0695   0.1583   1.0000   1
1208.825   0.9624   0.1511   1.0000   1
1208.855   1.0688   0.1582   1.0000   1
1208.885   0.9166   0.1475   1.0000   1
1208.915   1.0775   0.1588   1.0000   1
1208.945   1.1222   0.1617   1.0000   1
1208.974   1.1623   0.1644   1.0000   1
1209.004   0.9026   0.1471   1.0000   1
1209.034   0.8766   0.1453   1.0000   1
1209.064   1.0223   0.1554   1.0000   1
1209.094   1.0361   0.1564   1.0000   1
1209.124   0.9237   0.1490   1.0000   1
1209.154   0.9720   0.1522   1.0000   1
1209.184   0.9445   0.1503   1.0000   1
1209.214   1.2339   0.1690   1.0000   1
1209.243   0.9393   0.1500   1.0000   1
1209.273   0.9286   0.1493   1.0000   1
1209.303   0.9586   0.1515   1.0000   1
1209.333   0.9590   0.1516   1.0000   1
1209.363   0.9201   0.1486   1.0000   1
1209.393   0.9822   0.1532   1.0000   1
1209.423   0.9713   0.1526   1.0000   1
1209.453   0.8468   0.1440   1.0000   1
1209.482   0.9526   0.1506   1.0000   1
1209.512   0.9890   0.1535   1.0000   1
1209.542   0.9788   0.1532   1.0000   1
1209.572   0.9742   0.1530   1.0000   1
1209.602   0.9973   0.1545   1.0000   1
1209.632   0.9158   0.1482   1.0000   1
1209.662   0.9315   0.1498   1.0000   1
1209.692   0.8876   0.1468   1.0000   1
