# Best-fit normalized data and profile from VoigtFit
# column 1 : Wavelength
# column 2 : Normalized flux
# column 3 : Normalized error
# column 4 : Best-fit profile
# column 5 : Pixel mask, 1=included, 0=excluded
1330.109   1.1213   0.1771   1.0000   1
1330.139   1.0297   0.1711   1.0000   1
1330.169   1.0211   0.1705   1.0000   1
1330.199   1.0981   0.1760   1.0000   1
1330.229   0.8413   0.1569   1.0000   1
1330.259   1.0561   0.1729   1.0000   1
1330.289   1.0473   0.1724   1.0000   1
1330.319   0.9069   0.1619   1.0000   1
1330.348   0.7348   0.1480   1.0000   1
1330.378   1.0570   0.1727   1.0000   1
1330.408   0.9705   0.1669   1.0000   1
1330.438   1.0141   0.1699   1.0000   1
1330.468   1.0818   0.1748   1.0000   1
1330.498   0.9716   0.1664   1.0000   1
1330.528   1.0139   0.1702   1.0000   1
1330.558   1.1905   0.1823   1.0000   1
1330.588   1.0067   0.1693   1.0000   1
1330.617   1.0229   0.1707   1.0000   1
1330.647   1.0382   0.1718   1.0000   1
1330.677   1.1793   0.1813   1.0000   1
1330.707   1.0223   0.1705   1.0000   1
1330.737   1.0922   0.1752   1.0000   1
1330.767   1.0003   0.1685   1.0000   1
1330.797   1.0718   0.1737   1.0000   1
1330.827   1.0636   0.1734   1.0000   1
1330.857   1.1816   0.1814   1.0000   1
1330.886   0.9631   0.1653   1.0000   1
1330.916   1.0665   0.1737   1.0000   1
1330.946   1.0268   0.1709   1.0000   1
1330.976   0.9862   0.1677   1.0000   1
1331.006   1.0594   0.1729   1.0000   1
1331.036   1.0109   0.1694   1.0000   1
1331.066   0.9732   0.1669   1.0000   1
1331.096   1.0260   0.1708   1.0000   1
1331.126   1.0469   0.1719   1.0000   1
1331.156   1.1081   0.1763   1.0000   1
1331.185   0.9635   0.1659   1.0000   1
1331.215   0.8432   0.1566   1.0000   1
1331.245   0.9876   0.1678   1.0000   1
1331.275   0.9519   0.1651   1.0000   1
1331.305   0.8590   0.1581   1.0000   1
1331.335   1.0555   0.1720   1.0000   1
1331.365   1.0550   0.1723   1.0000   1
1331.395   0.9813   0.1669   1.0000   1
1331.425   1.0117   0.1692   1.0000   1
1331.455   0.9895   0.1678   1.0000   1
1331.484   0.9695   0.1662   1.0000   1
1331.514   0.9582   0.1653   1.0000   1
1331.544   0.9275   0.1630   1.0000   1
1331.574   0.9120   0.1620   1.0000   1
1331.604   0.9453   0.1645   1.0000   1
1331.634   0.9302   0.1633   1.0000   1
1331.664   1.0140   0.1690   1.0000   1
1331.694   0.9472   0.1646   1.0000   1
1331.724   0.9644   0.1658   1.0000   1
1331.753   0.9051   0.1613   1.0000   1
1331.783   1.0460   0.1712   1.0000   1
1331.813   0.8675   0.1582   1.0000   1
1331.843   0.9730   0.1652   1.0000   1
1331.873   1.0419   0.1714   1.0000   1
1331.903   0.9630   0.1650   1.0000   1
1331.933   0.9386   0.1640   1.0000   1
1331.963   1.0067   0.1701   1.0000   1
1331.993   0.8953   0.1629   1.0000   1
1332.022   1.1434   0.1829   1.0000   1
1332.052   1.1098   0.1811   1.0000   1
1332.082   0.8890   0.1655   1.0000   1
1332.112   0.8913   0.1663   1.0000   1
1332.142   0.8696   0.1633   1.0000   1
1332.172   0.9261   0.1664   1.0000   1
1332.202   1.0686   0.1792   1.0000   1
1332.232   0.9604   0.1712   1.0000   0
1332.262   0.9378   0.1687   1.0000   0
1332.292   0.9358   0.1680   1.0000   0
1332.321   0.8953   0.1651   1.0000   0
1332.351   0.7510   0.1520   1.0000   0
1332.381   0.7363   0.1489   1.0000   0
1332.411   0.7620   0.1499   1.0000   0
1332.441   0.7486   0.1489   1.0000   0
1332.471   0.6686   0.1418   1.0000   0
1332.501   0.7144   0.1458   1.0000   0
1332.531   0.6012   0.1360   1.0000   0
1332.561   0.6009   0.1358   1.0000   0
1332.590   0.7053   0.1453   1.0000   0
1332.620   0.6699   0.1420   1.0000   0
1332.650   0.7652   0.1503   1.0000   0
1332.680   0.8886   0.1600   1.0000   0
1332.710   0.8922   0.1602   1.0000   0
1332.740   0.9276   0.1630   1.0000   0
1332.770   0.9380   0.1636   1.0000   0
1332.800   0.7734   0.1509   1.0000   0
1332.830   0.9447   0.1643   1.0000   0
1332.860   1.0407   0.1711   1.0000   1
1332.889   1.0403   0.1710   1.0000   1
1332.919   0.9116   0.1612   1.0000   1
1332.949   0.9292   0.1630   1.0000   1
1332.979   0.9673   0.1657   1.0000   1
1333.009   1.1388   0.1778   1.0000   1
1333.039   1.0363   0.1707   1.0000   1
1333.069   1.0042   0.1684   1.0000   1
1333.099   0.9012   0.1609   1.0000   1
1333.129   1.0269   0.1697   1.0000   1
1333.158   0.9713   0.1662   0.9999   1
1333.188   1.0544   0.1718   0.9997   1
1333.218   1.0633   0.1723   0.9992   1
1333.248   1.2127   0.1828   0.9977   1
1333.278   0.9976   0.1677   0.9939   1
1333.308   1.0131   0.1690   0.9852   1
1333.338   1.0361   0.1706   0.9673   1
1333.368   0.9515   0.1645   0.9334   1
1333.398   0.8704   0.1582   0.8780   1
1333.428   0.8404   0.1549   0.7983   1
1333.457   0.6780   0.1424   0.6974   1
1333.487   0.6372   0.1378   0.5868   1
1333.517   0.4055   0.1158   0.4826   1
1333.547   0.4007   0.1155   0.3986   1
1333.577   0.2909   0.1020   0.3436   1
1333.607   0.4117   0.1164   0.3210   1
1333.637   0.4607   0.1218   0.3269   1
1333.667   0.3095   0.1041   0.3547   1
1333.697   0.3294   0.1071   0.3932   1
1333.726   0.4111   0.1162   0.4269   1
1333.756   0.4635   0.1221   0.4431   1
1333.786   0.4470   0.1203   0.4377   1
1333.816   0.4943   0.1242   0.4175   1
1333.846   0.3636   0.1111   0.3960   1
1333.876   0.3446   0.1084   0.3871   1
1333.906   0.4108   0.1157   0.3991   1
1333.936   0.4759   0.1235   0.4349   1
1333.966   0.4581   0.1215   0.4902   1
1333.995   0.5605   0.1310   0.5502   1
1334.025   0.6018   0.1358   0.5924   1
1334.055   0.5720   0.1326   0.5916   1
1334.085   0.5360   0.1291   0.5294   1
1334.115   0.4300   0.1185   0.4158   1
1334.145   0.3049   0.1034   0.2801   1
1334.175   0.1417   0.0787   0.1585   1
1334.205   0.0436   0.0551   0.0757   1
1334.235   0.0562   0.0586   0.0303   1
1334.265   0.0775   0.0630   0.0103   1
1334.294   0.0173   0.0451   0.0030   1
1334.324   0.0493   0.0570   0.0010   1
1334.354   0.0242   0.0491   0.0004   1
1334.384   0.0213   0.0484   0.0004   1
1334.414   0.0033   0.0418   0.0010   1
1334.444   0.0073   0.0428   0.0032   1
1334.474   0.0117   0.0449   0.0099   1
1334.504   0.0406   0.0548   0.0265   1
1334.534   0.0437   0.0550   0.0599   1
1334.563   0.1101   0.0718   0.1135   1
1334.593   0.1453   0.0788   0.1776   1
1334.623   0.2971   0.1011   0.2349   1
1334.653   0.3256   0.1059   0.2705   1
1334.683   0.2237   0.0925   0.2811   1
1334.713   0.2880   0.1012   0.2775   1
1334.743   0.3105   0.1037   0.2731   1
1334.773   0.2810   0.0998   0.2786   1
1334.803   0.2349   0.0941   0.3013   1
1334.833   0.3159   0.1044   0.3444   1
1334.862   0.4171   0.1161   0.4082   1
1334.892   0.6382   0.1382   0.4904   1
1334.922   0.6746   0.1417   0.5850   1
1334.952   0.5873   0.1339   0.6823   1
1334.982   0.7527   0.1484   0.7725   1
1335.012   0.8062   0.1520   0.8484   1
1335.042   0.9387   0.1623   0.9055   1
1335.072   0.9200   0.1606   0.9450   1
1335.102   0.8903   0.1594   0.9701   1
1335.131   0.9041   0.1604   0.9849   1
1335.161   1.1000   0.1745   0.9928   1
1335.191   1.0758   0.1727   0.9967   1
1335.221   1.0673   0.1719   0.9986   1
1335.251   0.9676   0.1650   0.9994   1
1335.281   1.1778   0.1792   0.9998   1
1335.311   0.9284   0.1622   0.9999   1
1335.341   1.0483   0.1709   1.0000   1
1335.371   0.9558   0.1634   1.0000   1
1335.401   1.0633   0.1710   1.0000   1
1335.430   0.9859   0.1660   1.0000   1
1335.460   0.9312   0.1623   1.0000   1
1335.490   0.8765   0.1581   1.0000   1
1335.520   0.9879   0.1663   1.0000   0
1335.550   1.0333   0.1694   1.0000   0
1335.580   0.7728   0.1495   1.0000   0
1335.610   0.7430   0.1475   1.0000   0
1335.640   0.7879   0.1511   1.0000   0
1335.670   0.6371   0.1383   1.0000   0
1335.699   0.5034   0.1258   1.0000   0
1335.729   0.5270   0.1271   1.0000   0
1335.759   0.8311   0.1546   1.0000   0
1335.789   0.8037   0.1524   1.0000   0
1335.819   0.9129   0.1608   1.0000   0
1335.849   0.8952   0.1594   1.0000   0
1335.879   1.0522   0.1709   1.0000   0
1335.909   1.0309   0.1692   1.0000   1
1335.939   0.9148   0.1605   1.0000   1
1335.969   0.9699   0.1647   1.0000   1
1335.998   1.0670   0.1716   1.0000   1
1336.028   1.0645   0.1710   1.0000   1
1336.058   1.0777   0.1725   1.0000   1
1336.088   1.0371   0.1696   1.0000   1
1336.118   1.0043   0.1673   1.0000   1
1336.148   1.0404   0.1698   1.0000   1
1336.178   1.0510   0.1693   1.0000   1
1336.208   1.0172   0.1683   1.0000   1
1336.238   1.1443   0.1769   1.0000   1
1336.267   0.9365   0.1623   1.0000   1
1336.297   1.0642   0.1717   1.0000   1
1336.327   1.0289   0.1691   1.0000   1
1336.357   0.9706   0.1648   1.0000   1
1336.387   1.0677   0.1716   1.0000   0
1336.417   1.1279   0.1759   1.0000   0
1336.447   0.9133   0.1606   1.0000   0
1336.477   0.8564   0.1560   1.0000   0
1336.507   0.9002   0.1595   1.0000   0
1336.537   0.7643   0.1490   1.0000   0
1336.566   0.6712   0.1411   1.0000   0
1336.596   0.4012   0.1150   1.0000   0
1336.626   0.4871   0.1238   1.0000   0
1336.656   0.4883   0.1239   1.0000   0
1336.686   0.5761   0.1323   1.0000   0
1336.716   0.5101   0.1262   1.0000   0
1336.746   0.6904   0.1426   1.0000   0
1336.776   0.7276   0.1459   1.0000   0
1336.806   0.6775   0.1419   1.0000   0
1336.835   0.6364   0.1380   1.0000   0
1336.865   0.8763   0.1578   1.0000   0
1336.895   0.8020   0.1518   1.0000   0
1336.925   0.8352   0.1545   1.0000   0
1336.955   0.9164   0.1608   1.0000   0
1336.985   0.9495   0.1630   1.0000   0
1337.015   0.9634   0.1641   1.0000   0
1337.045   0.9531   0.1630   1.0000   0
1337.075   1.1102   0.1743   1.0000   0
1337.105   1.0214   0.1683   1.0000   0
1337.134   0.9166   0.1606   1.0000   1
1337.164   1.0745   0.1719   1.0000   1
1337.194   0.8076   0.1520   1.0000   1
1337.224   0.9782   0.1650   1.0000   1
1337.254   0.9936   0.1663   1.0000   1
1337.284   1.0609   0.1708   1.0000   1
1337.314   1.2072   0.1809   1.0000   1
1337.344   1.1299   0.1752   1.0000   1
1337.374   0.9245   0.1609   1.0000   1
1337.403   1.1249   0.1754   1.0000   1
1337.433   1.0525   0.1701   1.0000   1
1337.463   1.1284   0.1753   1.0000   1
1337.493   1.0477   0.1701   1.0000   1
1337.523   1.0874   0.1728   1.0000   1
1337.553   1.0072   0.1684   1.0000   1
1337.583   1.0109   0.1714   1.0000   1
1337.613   1.0227   0.1732   1.0000   1
1337.643   1.0064   0.1707   1.0000   1
1337.673   1.1151   0.1785   1.0000   1
1337.702   0.9811   0.1673   1.0000   1
1337.732   0.9819   0.1700   1.0000   1
1337.762   0.9958   0.1700   1.0000   1
1337.792   0.9222   0.1644   1.0000   1
1337.822   1.1926   0.1838   1.0000   1
1337.852   0.9835   0.1702   1.0000   1
1337.882   1.1339   0.1791   1.0000   1
1337.912   1.0571   0.1736   1.0000   1
1337.942   0.9464   0.1663   1.0000   1
1337.971   1.0303   0.1719   1.0000   1
1338.001   1.1040   0.1758   1.0000   1
1338.031   0.9145   0.1609   1.0000   1
1338.061   1.1027   0.1739   1.0000   1
1338.091   0.9553   0.1627   1.0000   1
1338.121   1.0315   0.1683   1.0000   1
1338.151   0.9669   0.1638   1.0000   1
1338.181   0.9885   0.1655   1.0000   1
1338.211   1.0113   0.1673   1.0000   1
1338.241   0.7681   0.1488   1.0000   1
1338.270   0.9992   0.1649   1.0000   1
1338.300   1.0493   0.1697   1.0000   1
1338.330   0.9642   0.1636   1.0000   1
1338.360   1.0654   0.1708   1.0000   1
1338.390   0.9111   0.1598   1.0000   1
1338.420   1.0119   0.1669   1.0000   1
1338.450   0.9874   0.1654   1.0000   1
1338.480   1.0380   0.1689   1.0000   1
1338.510   1.0625   0.1706   1.0000   1
1338.539   1.0966   0.1725   1.0000   1
1338.569   0.9433   0.1619   1.0000   1
1338.599   0.8691   0.1561   1.0000   1
1338.629   0.9950   0.1660   1.0000   1
1338.659   0.9322   0.1610   1.0000   1
1338.689   0.8687   0.1565   1.0000   1
1338.719   0.9134   0.1594   1.0000   1
1338.749   1.0408   0.1688   1.0000   1
1338.779   0.8396   0.1544   1.0000   1
1338.809   1.0996   0.1733   1.0000   1
1338.838   0.9548   0.1631   1.0000   1
1338.868   0.8332   0.1538   1.0000   1
1338.898   1.0989   0.1732   1.0000   1
1338.928   1.0954   0.1728   1.0000   1
1338.958   0.9476   0.1619   1.0000   1
