# Best-fit normalized data and profile from VoigtFit
# column 1 : Wavelength
# column 2 : Normalized flux
# column 3 : Normalized error
# column 4 : Best-fit profile
# column 5 : Pixel mask, 1=included, 0=excluded
1542.022   1.0061   0.1995   1.0000   1
1542.059   0.8796   0.1882   1.0000   1
1542.095   1.1826   0.2133   1.0000   1
1542.132   1.0223   0.2010   1.0000   1
1542.169   1.0528   0.2035   1.0000   1
1542.206   1.0398   0.2025   1.0000   1
1542.242   1.1060   0.2068   1.0000   1
1542.279   1.0961   0.2074   1.0000   1
1542.316   1.0562   0.2043   1.0000   1
1542.352   0.8789   0.1890   1.0000   1
1542.389   1.0258   0.2012   1.0000   1
1542.426   0.8394   0.1852   1.0000   1
1542.463   1.1108   0.2086   1.0000   1
1542.499   0.8659   0.1872   1.0000   1
1542.536   1.0650   0.2046   1.0000   1
1542.573   0.9975   0.1995   1.0000   1
1542.610   0.9714   0.1972   1.0000   1
1542.646   1.0154   0.2009   1.0000   1
1542.683   0.9574   0.1956   1.0000   1
1542.720   1.1126   0.2083   1.0000   1
1542.756   0.9353   0.1939   1.0000   1
1542.793   1.0644   0.2048   1.0000   1
1542.830   1.0315   0.2024   1.0000   1
1542.867   1.0217   0.2011   1.0000   1
1542.903   1.2773   0.2211   1.0000   1
1542.940   1.0767   0.2056   1.0000   1
1542.977   0.9276   0.1932   1.0000   1
1543.013   1.0815   0.2061   1.0000   1
1543.050   1.0107   0.2007   1.0000   1
1543.087   0.9537   0.1957   1.0000   1
1543.124   0.9076   0.1920   1.0000   1
1543.160   0.9407   0.1945   1.0000   1
1543.197   1.0259   0.2020   1.0000   1
1543.234   1.0268   0.2018   1.0000   1
1543.270   1.0284   0.2024   1.0000   1
1543.307   1.0150   0.2014   1.0000   1
1543.344   0.9425   0.1953   1.0000   1
1543.381   1.0163   0.2013   1.0000   1
1543.417   0.9284   0.1932   1.0000   1
1543.454   1.1619   0.2127   1.0000   1
1543.491   1.1240   0.2099   1.0000   1
1543.528   0.9041   0.1902   1.0000   1
1543.564   1.0249   0.2023   1.0000   1
1543.601   1.1896   0.2154   1.0000   1
1543.638   0.9925   0.1997   1.0000   1
1543.674   1.0429   0.2037   1.0000   1
1543.711   1.0633   0.2046   1.0000   1
1543.748   1.1158   0.2096   1.0000   1
1543.785   1.0811   0.2069   1.0000   1
1543.821   1.1145   0.2114   1.0000   1
1543.858   0.9327   0.1990   1.0000   1
1543.895   0.9254   0.2005   1.0000   1
1543.931   1.2165   0.2258   1.0000   1
1543.968   0.9662   0.2013   1.0000   1
1544.005   0.9807   0.2036   1.0000   1
1544.042   1.0721   0.2107   1.0000   1
1544.078   1.0160   0.2079   1.0000   1
1544.115   0.9641   0.2036   1.0000   1
1544.152   1.2299   0.2261   1.0000   1
1544.189   1.1133   0.2187   1.0000   1
1544.225   1.0507   0.2130   1.0000   1
1544.262   1.0753   0.2149   1.0000   1
1544.299   1.1491   0.2218   1.0000   1
1544.335   0.9207   0.1967   1.0000   1
1544.372   1.3085   0.2264   1.0000   1
1544.409   1.2848   0.2229   1.0000   1
1544.446   1.1500   0.2128   1.0000   1
1544.482   0.9127   0.1923   1.0000   1
1544.519   0.9581   0.1970   1.0000   1
1544.556   0.8020   0.1830   1.0000   1
1544.592   0.9448   0.1956   1.0000   1
1544.629   0.9837   0.1993   1.0000   1
1544.666   1.1056   0.2091   1.0000   1
1544.703   1.1074   0.2095   1.0000   1
1544.739   0.9582   0.1970   1.0000   1
1544.776   0.9906   0.1996   1.0000   1
1544.813   0.9934   0.2001   1.0000   1
1544.850   0.8839   0.1908   1.0000   1
1544.886   1.0187   0.2017   1.0000   1
1544.923   0.9465   0.1959   1.0000   1
1544.960   0.8508   0.1880   1.0000   1
1544.996   1.0057   0.2010   1.0000   1
1545.033   0.8444   0.1869   1.0000   1
1545.070   1.0168   0.2024   1.0000   1
1545.107   0.9101   0.1928   1.0000   1
1545.143   0.9323   0.1953   1.0000   1
1545.180   1.1210   0.2093   1.0000   1
1545.217   1.1139   0.2104   1.0000   1
1545.253   0.9894   0.1999   1.0000   1
1545.290   1.0855   0.2082   1.0000   1
1545.327   0.9546   0.1969   1.0000   1
1545.364   0.9252   0.1939   1.0000   1
1545.400   1.1213   0.2109   1.0000   1
1545.437   0.8738   0.1903   1.0000   1
1545.474   0.9833   0.1992   1.0000   1
1545.510   0.8732   0.1902   1.0000   1
1545.547   1.0207   0.2030   1.0000   1
1545.584   0.9427   0.1963   1.0000   1
1545.621   1.1846   0.2160   1.0000   1
1545.657   1.0243   0.2029   1.0000   1
1545.694   0.9599   0.1966   1.0000   1
1545.731   1.1286   0.2116   1.0000   1
1545.768   1.0398   0.2038   1.0000   1
1545.804   0.9250   0.1939   1.0000   1
1545.841   1.0632   0.2059   1.0000   1
1545.878   0.9327   0.1951   1.0000   1
1545.914   0.8410   0.1871   1.0000   1
1545.951   1.0424   0.2049   1.0000   1
1545.988   0.9346   0.1955   1.0000   1
1546.025   1.2043   0.2179   1.0000   1
1546.061   1.0804   0.2083   1.0000   1
1546.098   0.9834   0.1998   1.0000   1
1546.135   1.0915   0.2086   1.0000   1
1546.171   0.9667   0.1988   1.0000   1
1546.208   0.7328   0.1767   1.0000   1
1546.245   1.1390   0.2130   1.0000   1
1546.282   1.0057   0.2021   1.0000   1
1546.318   1.0699   0.2074   1.0000   1
1546.355   0.9588   0.1978   1.0000   1
1546.392   0.8690   0.1903   1.0000   1
1546.429   0.9751   0.1996   1.0000   1
1546.465   1.0917   0.2094   1.0000   1
1546.502   1.0626   0.2070   1.0000   1
1546.539   0.8995   0.1923   0.9999   1
1546.575   1.1303   0.2123   0.9998   1
1546.612   0.9853   0.2001   0.9994   1
1546.649   0.9967   0.2012   0.9982   1
1546.686   0.9663   0.1990   0.9950   1
1546.722   0.9182   0.1947   0.9877   1
1546.759   0.9090   0.1941   0.9720   1
1546.796   0.8603   0.1897   0.9430   1
1546.832   0.7530   0.1792   0.8948   1
1546.869   0.8498   0.1870   0.8259   1
1546.906   0.9383   0.1965   0.7403   1
1546.943   0.5594   0.1599   0.6490   1
1546.979   0.6168   0.1662   0.5663   1
1547.016   0.6175   0.1657   0.5062   1
1547.053   0.4134   0.1423   0.4748   1
1547.089   0.4223   0.1426   0.4746   1
1547.126   0.5687   0.1610   0.5009   1
1547.163   0.5791   0.1617   0.5424   1
1547.200   0.6275   0.1666   0.5826   1
1547.236   0.6574   0.1702   0.6046   1
1547.273   0.6577   0.1695   0.5980   1
1547.310   0.5217   0.1555   0.5666   1
1547.347   0.5720   0.1613   0.5235   1
1547.383   0.5241   0.1568   0.4847   1
1547.420   0.5104   0.1576   0.4621   1
1547.457   0.5144   0.1600   0.4636   1
1547.493   0.5101   0.1590   0.4897   1
1547.530   0.5003   0.1550   0.5381   1
1547.567   0.5761   0.1656   0.6018   1
1547.604   0.7083   0.1794   0.6694   1
1547.640   0.7837   0.1886   0.7271   1
1547.677   0.8121   0.1910   0.7644   1
1547.714   0.7182   0.1827   0.7737   1
1547.750   0.7801   0.1893   0.7556   1
1547.787   0.8071   0.1915   0.7152   1
1547.824   0.8103   0.1940   0.6589   1
1547.861   0.7038   0.1820   0.5950   1
1547.897   0.6155   0.1707   0.5299   1
1547.934   0.6094   0.1666   0.4688   1
1547.971   0.3879   0.1390   0.4154   1
1548.008   0.3577   0.1350   0.3721   1
1548.044   0.2878   0.1231   0.3396   1
1548.081   0.3566   0.1353   0.3190   1
1548.118   0.2200   0.1141   0.3095   1
1548.154   0.3676   0.1354   0.3116   1
1548.191   0.3191   0.1276   0.3252   1
1548.228   0.3363   0.1308   0.3500   1
1548.265   0.3489   0.1320   0.3866   1
1548.301   0.4451   0.1466   0.4338   1
1548.338   0.4758   0.1502   0.4908   1
1548.375   0.6522   0.1705   0.5550   1
1548.411   0.7978   0.1848   0.6231   1
1548.448   0.7698   0.1820   0.6916   1
1548.485   0.6908   0.1745   0.7566   1
1548.522   0.7390   0.1785   0.8147   1
1548.558   0.8596   0.1902   0.8642   1
1548.595   0.8768   0.1923   0.9040   1
1548.632   0.8967   0.1942   0.9345   1
1548.668   0.8079   0.1854   0.9570   1
1548.705   0.8471   0.1899   0.9726   1
1548.742   0.8966   0.1937   0.9832   1
1548.779   0.8079   0.1857   0.9900   1
1548.815   0.8789   0.1923   0.9942   1
1548.852   1.1661   0.2169   0.9968   1
1548.889   1.0324   0.2055   0.9982   1
1548.926   0.9661   0.2002   0.9991   1
1548.962   0.9262   0.1960   0.9995   1
1548.999   1.0875   0.2096   0.9998   1
1549.036   0.8694   0.1917   0.9999   1
1549.072   1.0381   0.2062   0.9999   1
1549.109   0.9467   0.1984   1.0000   1
1549.146   0.9880   0.2024   0.9999   1
1549.183   0.8683   0.1919   0.9998   1
1549.219   0.8603   0.1906   0.9994   1
1549.256   0.8613   0.1913   0.9982   1
1549.293   1.0240   0.2052   0.9954   1
1549.329   1.0717   0.2077   0.9891   1
1549.366   0.8500   0.1903   0.9769   1
1549.403   0.8616   0.1913   0.9552   1
1549.440   1.0222   0.2050   0.9218   1
1549.476   1.1264   0.2139   0.8764   1
1549.513   0.8163   0.1868   0.8226   1
1549.550   0.7045   0.1745   0.7682   1
1549.587   0.6393   0.1677   0.7227   1
1549.623   0.6936   0.1752   0.6940   1
1549.660   0.7556   0.1811   0.6865   1
1549.697   0.6462   0.1695   0.6993   1
1549.733   0.5659   0.1612   0.7255   1
1549.770   0.7960   0.1855   0.7545   1
1549.807   0.9092   0.1958   0.7744   1
1549.844   0.5893   0.1643   0.7769   1
1549.880   0.7152   0.1768   0.7612   1
1549.917   0.6759   0.1732   0.7338   1
1549.954   0.7459   0.1803   0.7047   1
1549.990   0.5867   0.1642   0.6838   1
1550.027   0.5436   0.1587   0.6784   1
1550.064   0.6716   0.1720   0.6907   1
1550.101   0.8247   0.1880   0.7191   1
1550.137   0.9081   0.1947   0.7588   1
1550.174   0.6331   0.1692   0.8022   1
1550.211   0.9511   0.1988   0.8406   1
1550.248   0.7475   0.1801   0.8678   1
1550.284   0.7582   0.1816   0.8795   1
1550.321   0.7836   0.1846   0.8747   1
1550.358   0.8868   0.1942   0.8557   1
1550.394   0.8238   0.1885   0.8248   1
1550.431   0.7805   0.1839   0.7863   1
1550.468   0.5030   0.1545   0.7435   1
1550.505   0.7613   0.1824   0.6999   1
1550.541   0.5312   0.1582   0.6584   1
1550.578   0.5949   0.1651   0.6218   1
1550.615   0.5209   0.1572   0.5919   1
1550.651   0.6070   0.1661   0.5706   1
1550.688   0.5478   0.1599   0.5585   1
1550.725   0.4837   0.1527   0.5563   1
1550.762   0.6848   0.1749   0.5643   1
1550.798   0.5795   0.1632   0.5818   1
1550.835   0.6165   0.1673   0.6083   1
1550.872   0.8842   0.1936   0.6424   1
1550.908   0.7824   0.1840   0.6822   1
1550.945   0.7660   0.1831   0.7258   1
1550.982   0.5748   0.1631   0.7705   1
1551.019   0.7142   0.1779   0.8139   1
1551.055   0.8459   0.1898   0.8541   1
1551.092   0.9536   0.2002   0.8894   1
1551.129   0.8543   0.1915   0.9189   1
1551.166   0.9305   0.1985   0.9426   1
1551.202   1.0167   0.2056   0.9606   1
1551.239   0.9323   0.1985   0.9739   1
1551.276   1.0577   0.2095   0.9832   1
1551.312   0.9865   0.2021   0.9896   1
1551.349   1.1044   0.2133   0.9937   1
1551.386   0.9390   0.1993   0.9963   1
1551.423   0.9357   0.1985   0.9979   1
1551.459   1.2455   0.2236   0.9989   1
1551.496   0.9036   0.1961   0.9994   1
1551.533   0.9551   0.2007   0.9997   1
1551.569   0.8746   0.1934   0.9998   1
1551.606   1.0057   0.2043   0.9999   1
1551.643   1.0362   0.2073   1.0000   1
1551.680   1.0074   0.2049   1.0000   1
1551.716   1.1360   0.2160   1.0000   1
1551.753   1.0146   0.2060   1.0000   1
1551.790   0.9107   0.1970   1.0000   1
1551.827   0.8631   0.1916   1.0000   1
1551.863   0.8170   0.1884   1.0000   1
1551.900   1.0613   0.2096   1.0000   1
1551.937   1.0629   0.2102   1.0000   1
1551.973   1.0872   0.2122   1.0000   1
1552.010   0.9952   0.2044   1.0000   1
1552.047   1.0072   0.2056   1.0000   1
1552.084   1.1033   0.2135   1.0000   1
1552.120   1.1177   0.2145   1.0000   1
1552.157   1.0855   0.2120   1.0000   1
1552.194   0.8601   0.1922   1.0000   1
1552.230   1.0945   0.2125   1.0000   1
1552.267   0.9462   0.1994   1.0000   1
1552.304   1.0458   0.2090   1.0000   1
1552.341   0.9426   0.2001   1.0000   1
1552.377   1.0935   0.2128   1.0000   1
1552.414   1.0198   0.2063   1.0000   1
1552.451   0.9850   0.2036   1.0000   1
1552.487   1.0859   0.2124   1.0000   1
1552.524   0.9605   0.2010   1.0000   1
1552.561   0.9630   0.2019   1.0000   1
1552.598   0.9293   0.1990   1.0000   1
1552.634   0.9335   0.1997   1.0000   1
1552.671   0.9997   0.2052   1.0000   1
1552.708   0.8258   0.1898   1.0000   1
1552.745   1.0816   0.2122   1.0000   1
1552.781   0.9539   0.2010   1.0000   1
1552.818   0.9309   0.1984   1.0000   1
1552.855   0.9926   0.2040   1.0000   1
1552.891   0.9687   0.2026   1.0000   1
1552.928   0.9891   0.2045   1.0000   1
1552.965   1.2438   0.2248   1.0000   1
1553.002   1.0209   0.2071   1.0000   1
1553.038   0.9348   0.1994   1.0000   1
1553.075   0.9585   0.2016   1.0000   1
1553.112   1.1347   0.2165   1.0000   1
1553.148   0.9591   0.2019   1.0000   1
1553.185   0.8475   0.1919   1.0000   1
1553.222   1.2912   0.2285   1.0000   1
1553.259   1.0340   0.2082   1.0000   1
1553.295   1.0559   0.2102   1.0000   1
1553.332   0.9215   0.1983   1.0000   1
1553.369   0.9487   0.2007   1.0000   1
1553.406   0.8915   0.1962   1.0000   1
1553.442   1.0861   0.2127   1.0000   1
1553.479   0.9739   0.2030   1.0000   1
1553.516   0.8972   0.1963   1.0000   1
1553.552   1.0265   0.2082   1.0000   1
1553.589   1.1803   0.2206   1.0000   1
1553.626   1.0690   0.2113   1.0000   1
1553.663   0.9301   0.1996   1.0000   1
1553.699   1.0958   0.2132   1.0000   1
1553.736   1.1099   0.2149   1.0000   1
1553.773   0.9626   0.2025   1.0000   1
1553.809   1.0181   0.2074   1.0000   1
1553.846   1.0968   0.2137   1.0000   1
1553.883   0.8807   0.1949   1.0000   1
1553.920   0.9276   0.1991   1.0000   1
1553.956   0.9563   0.2017   1.0000   1
1553.993   0.9493   0.2012   1.0000   1
1554.030   1.0150   0.2063   1.0000   1
1554.066   1.2244   0.2237   1.0000   1
1554.103   0.9401   0.2009   1.0000   1
1554.140   1.0529   0.2101   1.0000   1
1554.177   0.8655   0.1939   1.0000   1
1554.213   0.9298   0.2008   1.0000   1
1554.250   0.8623   0.1979   1.0000   1
1554.287   1.2816   0.2368   1.0000   1
1554.324   0.9959   0.2144   1.0000   1
1554.360   1.0048   0.2149   1.0000   1
1554.397   0.9907   0.2135   1.0000   1
1554.434   0.8616   0.2015   1.0000   1
1554.470   1.0927   0.2239   1.0000   1
1554.507   0.9535   0.2103   1.0000   1
1554.544   1.1214   0.2272   1.0000   1
1554.581   1.0258   0.2181   1.0000   1
1554.617   1.0409   0.2180   1.0000   1
1554.654   1.0230   0.2185   1.0000   1
1554.691   1.1752   0.2287   1.0000   1
1554.727   0.9030   0.2013   1.0000   1
1554.764   0.8022   0.1887   1.0000   1
1554.801   0.9188   0.1986   1.0000   1
1554.838   1.2027   0.2229   1.0000   1
1554.874   1.0265   0.2083   1.0000   1
1554.911   0.9423   0.2015   1.0000   1
1554.948   1.2374   0.2256   1.0000   1
1554.985   1.1345   0.2178   1.0000   1
1555.021   1.1457   0.2179   1.0000   1
1555.058   0.7817   0.1865   1.0000   1
1555.095   1.0468   0.2102   1.0000   1
1555.131   0.9235   0.1989   1.0000   1
1555.168   0.8853   0.1964   1.0000   1
1555.205   0.9260   0.2001   1.0000   1
1555.242   1.1443   0.2180   1.0000   1
1555.278   0.9758   0.2041   1.0000   1
1555.315   0.8267   0.1891   1.0000   1
1555.352   0.9759   0.2044   1.0000   1
1555.388   0.9657   0.2036   1.0000   1
1555.425   1.0233   0.2086   1.0000   1
1555.462   1.1598   0.2194   1.0000   1
1555.499   0.9621   0.2034   1.0000   1
1555.535   1.1686   0.2205   1.0000   1
1555.572   1.0683   0.2121   1.0000   1
1555.609   0.9924   0.2057   1.0000   1
1555.645   0.9801   0.2042   1.0000   1
1555.682   1.0779   0.2131   1.0000   1
1555.719   1.2191   0.2247   1.0000   1
1555.756   1.1005   0.2146   1.0000   1
1555.792   1.0124   0.2080   1.0000   1
1555.829   0.9339   0.2006   1.0000   1
1555.866   0.9797   0.2048   1.0000   1
1555.903   1.0542   0.2106   1.0000   1
1555.939   1.0494   0.2113   1.0000   1
1555.976   1.0316   0.2099   1.0000   1
1556.013   0.9977   0.2059   1.0000   1
1556.049   1.1966   0.2233   1.0000   1
1556.086   1.1031   0.2156   1.0000   1
1556.123   0.9737   0.2050   1.0000   1
1556.160   0.9984   0.2068   1.0000   1
1556.196   1.0201   0.2086   1.0000   1
1556.233   0.9744   0.2044   1.0000   1
1556.270   1.2043   0.2237   1.0000   1
1556.306   1.0216   0.2084   1.0000   1
1556.343   1.2237   0.2251   1.0000   1
1556.380   1.1316   0.2181   1.0000   1
1556.417   0.9840   0.2057   1.0000   1
1556.453   1.0523   0.2116   1.0000   1
1556.490   1.0383   0.2108   1.0000   1
1556.527   1.0983   0.2155   1.0000   1
1556.564   1.0398   0.2107   1.0000   1
1556.600   0.9574   0.2024   1.0000   1
1556.637   0.7567   0.1849   1.0000   1
1556.674   1.0229   0.2094   1.0000   1
1556.710   0.9946   0.2070   1.0000   1
1556.747   0.9249   0.2001   1.0000   1
1556.784   1.0824   0.2147   1.0000   1
1556.821   1.0824   0.2142   1.0000   1
1556.857   1.1108   0.2167   1.0000   1
1556.894   1.0061   0.2079   1.0000   1
1556.931   1.1549   0.2200   1.0000   1
1556.967   1.0227   0.2093   1.0000   1
