# Best-fit normalized data and profile from VoigtFit
# column 1 : Wavelength
# column 2 : Normalized flux
# column 3 : Normalized error
# column 4 : Best-fit profile
# column 5 : Pixel mask, 1=included, 0=excluded
1203.902   1.0827   0.0815   1.0000   1
1203.932   1.0139   0.0791   1.0000   1
1203.962   1.0127   0.0791   1.0000   1
1203.992   1.0561   0.0806   1.0000   1
1204.021   1.0526   0.0807   1.0000   1
1204.051   1.0937   0.0821   1.0000   1
1204.081   0.9470   0.0768   1.0000   1
1204.111   0.9483   0.0769   1.0000   1
1204.141   1.0411   0.0804   1.0000   1
1204.171   1.0710   0.0814   1.0000   1
1204.201   1.0049   0.0792   1.0000   1
1204.231   1.0481   0.0807   1.0000   1
1204.261   0.9299   0.0764   1.0000   1
1204.290   1.0084   0.0793   1.0000   1
1204.320   0.9967   0.0790   1.0000   1
1204.350   0.9974   0.0791   1.0000   1
1204.380   1.0430   0.0808   1.0000   1
1204.410   1.0429   0.0808   1.0000   1
1204.440   0.9177   0.0762   0.9999   1
1204.470   0.9853   0.0788   0.9999   1
1204.500   0.9905   0.0790   0.9999   1
1204.530   1.0531   0.0813   0.9999   1
1204.559   1.0227   0.0803   0.9999   1
1204.589   0.9725   0.0785   0.9998   1
1204.619   1.0399   0.0810   0.9995   1
1204.649   1.0224   0.0804   0.9986   1
1204.679   0.9689   0.0785   0.9961   1
1204.709   0.9248   0.0769   0.9897   1
1204.739   0.9517   0.0779   0.9757   1
1204.769   0.8831   0.0754   0.9480   1
1204.799   0.8588   0.0744   0.9001   1
1204.828   0.8300   0.0733   0.8278   1
1204.858   0.7463   0.0697   0.7335   1
1204.888   0.7424   0.0697   0.6277   1
1204.918   0.5847   0.0625   0.5270   1
1204.948   0.4426   0.0552   0.4484   1
1204.978   0.3293   0.0485   0.4025   1
1205.008   0.3114   0.0474   0.3941   1
1205.038   0.4211   0.0542   0.4237   1
1205.068   0.6086   0.0640   0.4886   1
1205.098   0.6739   0.0669   0.5806   1
1205.127   0.7800   0.0717   0.6856   1
1205.157   0.7750   0.0714   0.7869   1
1205.187   0.7387   0.0699   0.8699   1
1205.217   0.8394   0.0743   0.9275   1
1205.247   0.8370   0.0741   0.9596   1
1205.277   0.8673   0.0755   0.9678   1
1205.307   0.8532   0.0749   0.9501   1
1205.337   0.7683   0.0715   0.9006   1
1205.367   0.7204   0.0693   0.8126   1
1205.396   0.6504   0.0663   0.6895   1
1205.426   0.6919   0.0682   0.5491   1
1205.456   0.5604   0.0619   0.4191   1
1205.486   0.3301   0.0490   0.3235   1
1205.516   0.2326   0.0421   0.2744   1
1205.546   0.2268   0.0420   0.2747   1
1205.576   0.2949   0.0472   0.3229   1
1205.606   0.4098   0.0549   0.4086   1
1205.636   0.5632   0.0638   0.4958   1
1205.665   0.6203   0.0669   0.5179   1
1205.695   0.4051   0.0552   0.4356   1
1205.725   0.2617   0.0456   0.2947   1
1205.755   0.1879   0.0397   0.1886   1
1205.785   0.1979   0.0403   0.1796   1
1205.815   0.2911   0.0477   0.2847   1
1205.845   0.5065   0.0607   0.4766   1
1205.875   0.5997   0.0656   0.6732   1
1205.904   0.7739   0.0739   0.7888   1
1205.934   0.8564   0.0777   0.8021   1
1205.964   0.7197   0.0716   0.7448   1
1205.994   0.6336   0.0671   0.6500   1
1206.024   0.5457   0.0627   0.5380   1
1206.054   0.4124   0.0551   0.4217   1
1206.084   0.3046   0.0482   0.3122   1
1206.114   0.1658   0.0371   0.2190   1
1206.144   0.1211   0.0329   0.1466   1
1206.174   0.1386   0.0349   0.0953   1
1206.203   0.1199   0.0326   0.0616   1
1206.233   0.1175   0.0324   0.0410   1
1206.263   0.0677   0.0263   0.0293   1
1206.293   0.0354   0.0210   0.0235   1
1206.323   0.0383   0.0211   0.0218   1
1206.353   0.0375   0.0210   0.0238   1
1206.383   0.0330   0.0207   0.0301   1
1206.413   0.0451   0.0229   0.0424   1
1206.443   0.0558   0.0251   0.0639   1
1206.472   0.0702   0.0261   0.0989   1
1206.502   0.1070   0.0301   0.1519   1
1206.532   0.1699   0.0380   0.2261   1
1206.562   0.2899   0.0476   0.3210   1
1206.592   0.4685   0.0585   0.4314   1
1206.622   0.6842   0.0694   0.5481   1
1206.652   0.7777   0.0738   0.6602   1
1206.682   0.8157   0.0757   0.7580   1
1206.711   0.9345   0.0806   0.8365   1
1206.741   0.8628   0.0781   0.8950   1
1206.771   0.9239   0.0811   0.9357   1
1206.801   0.9655   0.0829   0.9623   1
1206.831   1.0336   0.0858   0.9788   1
1206.861   1.0763   0.0879   0.9885   1
1206.891   1.0155   0.0856   0.9940   1
1206.921   0.9205   0.0814   0.9969   1
1206.951   0.9727   0.0834   0.9985   1
1206.981   1.0070   0.0845   0.9992   1
1207.010   1.0085   0.0847   0.9996   1
1207.040   1.0832   0.0881   0.9998   1
1207.070   0.9957   0.0850   0.9998   1
1207.100   0.9361   0.0826   0.9999   1
1207.130   1.0044   0.0855   0.9999   1
1207.160   0.9936   0.0846   0.9999   1
1207.190   0.9943   0.0843   0.9999   1
1207.220   0.9800   0.0832   0.9999   1
1207.250   0.9812   0.0832   0.9999   1
1207.279   1.0068   0.0843   0.9999   1
1207.309   1.0753   0.0868   0.9999   1
1207.339   1.0647   0.0866   0.9999   1
1207.369   1.0554   0.0863   0.9999   1
1207.399   0.9888   0.0838   0.9999   1
1207.429   1.0255   0.0853   1.0000   1
1207.459   1.0892   0.0878   1.0000   1
1207.489   1.0106   0.0847   1.0000   1
1207.519   0.9766   0.0835   1.0000   1
1207.548   1.0697   0.0871   1.0000   1
1207.578   1.0572   0.0868   1.0000   1
1207.608   1.1355   0.0898   1.0000   1
1207.638   1.1005   0.0885   1.0000   1
1207.668   1.0136   0.0853   1.0000   1
1207.698   1.0299   0.0859   1.0000   1
1207.728   1.1564   0.0906   1.0000   1
1207.758   1.0709   0.0877   1.0000   1
1207.788   0.9705   0.0838   1.0000   1
1207.817   0.9694   0.0837   1.0000   1
1207.847   0.9839   0.0845   1.0000   1
1207.877   0.9672   0.0837   1.0000   1
1207.907   0.9983   0.0851   1.0000   1
1207.937   1.0815   0.0884   1.0000   1
1207.967   0.9854   0.0847   1.0000   1
1207.997   1.0177   0.0860   1.0000   1
1208.027   0.9464   0.0833   1.0000   1
1208.057   0.9430   0.0833   1.0000   1
1208.086   1.0168   0.0862   1.0000   1
1208.116   1.0133   0.0861   1.0000   1
1208.146   1.0452   0.0878   1.0000   1
1208.176   0.9008   0.0825   1.0000   1
1208.206   1.0098   0.0872   1.0000   1
1208.236   0.9989   0.0866   1.0000   1
1208.266   1.0098   0.0871   1.0000   1
1208.296   1.0082   0.0870   1.0000   1
1208.326   1.0131   0.0875   1.0000   1
1208.355   0.9627   0.0856   1.0000   1
1208.385   0.9830   0.0867   1.0000   1
1208.415   0.9963   0.0872   1.0000   1
1208.445   1.0822   0.0908   1.0000   1
1208.475   0.9368   0.0847   1.0000   1
1208.505   0.9125   0.0845   1.0000   1
1208.535   0.9869   0.0871   1.0000   1
1208.565   0.9601   0.0860   1.0000   1
1208.595   0.9976   0.0869   1.0000   1
1208.624   1.0183   0.0876   1.0000   1
1208.654   0.9757   0.0857   1.0000   1
1208.684   0.9472   0.0848   1.0000   1
1208.714   0.9807   0.0865   1.0000   1
1208.744   0.8936   0.0831   1.0000   1
1208.774   0.9904   0.0875   1.0000   1
1208.804   1.0267   0.0890   1.0000   1
1208.834   0.9675   0.0867   1.0000   1
1208.864   1.0132   0.0888   1.0000   1
1208.893   0.9629   0.0865   1.0000   1
1208.923   0.9602   0.0866   1.0000   1
1208.953   0.9758   0.0872   1.0000   1
1208.983   0.9782   0.0871   1.0000   1
1209.013   1.0364   0.0897   1.0000   1
1209.043   1.1012   0.0922   1.0000   1
1209.073   0.9698   0.0873   1.0000   1
1209.103   0.9723   0.0878   1.0000   1
