# Best-fit normalized data and profile from VoigtFit
# column 1 : Wavelength
# column 2 : Normalized flux
# column 3 : Normalized error
# column 4 : Best-fit profile
# column 5 : Pixel mask, 1=included, 0=excluded
1390.978   1.0367   0.0524   1.0000   1
1391.008   1.0011   0.0516   1.0000   1
1391.038   0.9635   0.0507   1.0000   1
1391.068   1.0292   0.0524   1.0000   1
1391.098   0.9835   0.0513   1.0000   1
1391.128   1.0432   0.0528   1.0000   1
1391.158   1.0487   0.0529   1.0000   1
1391.188   0.9754   0.0512   1.0000   1
1391.218   1.0254   0.0525   1.0000   1
1391.248   0.9985   0.0519   1.0000   1
1391.277   0.9894   0.0517   1.0000   1
1391.307   0.9876   0.0517   1.0000   1
1391.337   1.0102   0.0523   1.0000   1
1391.367   0.9980   0.0520   0.9999   1
1391.397   1.0069   0.0523   0.9999   1
1391.427   1.0015   0.0522   0.9998   1
1391.457   1.0566   0.0536   0.9996   1
1391.487   0.9978   0.0522   0.9992   1
1391.517   0.9781   0.0517   0.9986   1
1391.547   0.9839   0.0519   0.9977   1
1391.577   1.0239   0.0530   0.9962   1
1391.606   1.0283   0.0531   0.9940   1
1391.636   0.9634   0.0515   0.9909   1
1391.666   0.9775   0.0520   0.9866   1
1391.696   0.9913   0.0528   0.9808   1
1391.726   1.0175   0.0538   0.9735   1
1391.756   0.9808   0.0530   0.9645   1
1391.786   0.9397   0.0520   0.9541   1
1391.816   0.9317   0.0517   0.9424   1
1391.846   0.9606   0.0523   0.9300   1
1391.876   0.9188   0.0512   0.9177   1
1391.905   0.8804   0.0505   0.9063   1
1391.935   0.8930   0.0509   0.8965   1
1391.965   0.8591   0.0503   0.8891   1
1391.995   0.8343   0.0496   0.8848   1
1392.025   0.9059   0.0514   0.8840   1
1392.055   0.9618   0.0527   0.8865   1
1392.085   0.8851   0.0508   0.8924   1
1392.115   0.8772   0.0504   0.9010   1
1392.145   0.9399   0.0518   0.9116   1
1392.175   0.9442   0.0518   0.9233   1
1392.205   0.9457   0.0519   0.9352   1
1392.234   0.9116   0.0511   0.9464   1
1392.264   0.9826   0.0529   0.9558   1
1392.294   0.9550   0.0523   0.9626   1
1392.324   0.9412   0.0520   0.9659   1
1392.354   0.9171   0.0514   0.9652   1
1392.384   0.9382   0.0520   0.9601   1
1392.414   0.9479   0.0523   0.9504   1
1392.444   0.9194   0.0516   0.9363   1
1392.474   0.9443   0.0523   0.9173   1
1392.504   0.9113   0.0515   0.8905   1
1392.533   0.8947   0.0511   0.8501   1
1392.563   0.8420   0.0496   0.7885   1
1392.593   0.7502   0.0470   0.7037   1
1392.623   0.5906   0.0421   0.6069   1
1392.653   0.5282   0.0401   0.5234   1
1392.683   0.4999   0.0391   0.4810   1
1392.713   0.4997   0.0391   0.4963   1
1392.743   0.5460   0.0408   0.5675   1
1392.773   0.6855   0.0454   0.6723   1
1392.803   0.8229   0.0495   0.7728   1
1392.832   0.8118   0.0491   0.8299   1
1392.862   0.7916   0.0487   0.8210   1
1392.892   0.7404   0.0472   0.7537   1
1392.922   0.6741   0.0452   0.6669   1
1392.952   0.6600   0.0447   0.6108   1
1392.982   0.5761   0.0421   0.6177   1
1393.012   0.6715   0.0453   0.6837   1
1393.042   0.7913   0.0489   0.7745   1
1393.072   0.8584   0.0509   0.8506   1
1393.102   0.9018   0.0521   0.8920   1
1393.132   0.9285   0.0529   0.9016   1
1393.161   0.9154   0.0526   0.8927   1
1393.191   0.8766   0.0517   0.8762   1
1393.221   0.8029   0.0499   0.8582   1
1393.251   0.8203   0.0508   0.8414   1
1393.281   0.8465   0.0519   0.8272   1
1393.311   0.8350   0.0517   0.8166   1
1393.341   0.8004   0.0505   0.8104   1
1393.371   0.8115   0.0510   0.8086   1
1393.401   0.8076   0.0508   0.8110   1
1393.431   0.8604   0.0522   0.8161   1
1393.460   0.8611   0.0523   0.8213   1
1393.490   0.7936   0.0505   0.8229   1
1393.520   0.7533   0.0495   0.8159   1
1393.550   0.7903   0.0506   0.7959   1
1393.580   0.7038   0.0476   0.7605   1
1393.610   0.7229   0.0481   0.7120   1
1393.640   0.6744   0.0463   0.6571   1
1393.670   0.6967   0.0470   0.6059   1
1393.700   0.6380   0.0452   0.5689   1
1393.730   0.5277   0.0413   0.5540   1
1393.760   0.4892   0.0400   0.5655   1
1393.789   0.5605   0.0426   0.6029   1
1393.819   0.6657   0.0463   0.6614   1
1393.849   0.7973   0.0504   0.7325   1
1393.879   0.8747   0.0526   0.8054   1
1393.909   0.9029   0.0535   0.8703   1
1393.939   0.9156   0.0541   0.9211   1
1393.969   0.9394   0.0550   0.9563   1
1393.999   0.9342   0.0550   0.9779   1
1394.029   0.9162   0.0546   0.9898   1
1394.059   0.9758   0.0566   0.9957   1
1394.089   0.9536   0.0558   0.9983   1
1394.118   0.9599   0.0559   0.9994   1
1394.148   1.0025   0.0571   0.9998   1
1394.178   1.0098   0.0576   0.9999   1
1394.208   0.9763   0.0567   1.0000   1
1394.238   0.9297   0.0555   1.0000   1
1394.268   0.9995   0.0575   1.0000   1
1394.298   0.9413   0.0557   1.0000   1
1394.328   1.0139   0.0578   1.0000   1
1394.358   0.9758   0.0564   1.0000   1
1394.388   0.9859   0.0566   1.0000   1
1394.417   0.9974   0.0570   1.0000   1
1394.447   0.9715   0.0563   1.0000   1
1394.477   1.0178   0.0576   1.0000   1
1394.507   0.9994   0.0572   1.0000   1
1394.537   0.9994   0.0572   1.0000   1
1394.567   1.0066   0.0575   1.0000   1
1394.597   0.9978   0.0573   1.0000   1
1394.627   0.9570   0.0562   1.0000   1
1394.657   0.9956   0.0574   1.0000   1
1394.687   1.0336   0.0585   1.0000   1
1394.716   1.0236   0.0582   1.0000   1
1394.746   1.0209   0.0582   1.0000   1
1394.776   0.9275   0.0557   1.0000   1
1394.806   0.9856   0.0574   1.0000   1
1394.836   0.9904   0.0576   1.0000   1
1394.866   0.9544   0.0566   1.0000   1
1394.896   0.9572   0.0567   1.0000   1
1394.926   0.9676   0.0571   1.0000   1
1394.956   0.9864   0.0577   1.0000   1
1394.986   0.9557   0.0569   1.0000   1
1395.016   0.9305   0.0563   1.0000   1
1395.045   0.9950   0.0581   1.0000   1
1395.075   1.0150   0.0587   1.0000   1
1395.105   0.9899   0.0581   1.0000   1
1395.135   0.9906   0.0582   1.0000   1
1395.165   0.9520   0.0572   1.0000   1
1395.195   0.9382   0.0568   1.0000   1
1395.225   0.9807   0.0581   1.0000   1
1395.255   1.0176   0.0592   1.0000   1
1395.285   0.9962   0.0586   1.0000   1
1395.315   0.9906   0.0585   1.0000   1
1395.344   0.9572   0.0577   1.0000   1
1395.374   1.0196   0.0594   1.0000   1
1395.404   0.9947   0.0588   1.0000   1
1395.434   1.0386   0.0600   1.0000   1
1395.464   1.0101   0.0593   1.0000   1
1395.494   1.0213   0.0597   1.0000   1
1395.524   0.9389   0.0575   1.0000   1
1395.554   1.0626   0.0610   1.0000   1
1395.584   1.0008   0.0594   1.0000   1
1395.614   1.0105   0.0597   1.0000   1
1395.644   1.1104   0.0625   1.0000   1
1395.673   1.0387   0.0606   1.0000   1
1395.703   1.0148   0.0600   1.0000   1
1395.733   1.0734   0.0616   1.0000   1
1395.763   0.9954   0.0596   1.0000   1
1395.793   1.0534   0.0613   1.0000   1
1395.823   1.0362   0.0608   1.0000   1
1395.853   1.0437   0.0611   1.0000   1
1395.883   1.0131   0.0603   1.0000   1
1395.913   1.0614   0.0617   1.0000   1
1395.943   1.0327   0.0610   1.0000   1
1395.973   0.9894   0.0598   1.0000   1
1396.002   0.9853   0.0598   1.0000   1
1396.032   1.0503   0.0617   1.0000   1
1396.062   1.0077   0.0606   1.0000   1
1396.092   0.9937   0.0602   1.0000   1
1396.122   1.0273   0.0613   1.0000   1
1396.152   0.9832   0.0601   1.0000   1
1396.182   0.9916   0.0604   1.0000   1
1396.212   0.9684   0.0597   1.0000   1
1396.242   1.0276   0.0615   1.0000   1
1396.272   1.0383   0.0619   1.0000   1
1396.301   0.9849   0.0605   1.0000   1
1396.331   0.9918   0.0607   1.0000   1
1396.361   1.0152   0.0614   1.0000   1
1396.391   0.9758   0.0604   1.0000   1
1396.421   1.0240   0.0618   1.0000   1
1396.451   1.0169   0.0617   1.0000   1
1396.481   1.0160   0.0618   1.0000   1
1396.511   1.0639   0.0632   1.0000   1
1396.541   1.0127   0.0618   1.0000   1
