# Best-fit normalized data and profile from VoigtFit
# column 1 : Wavelength
# column 2 : Normalized flux
# column 3 : Normalized error
# column 4 : Best-fit profile
# column 5 : Pixel mask, 1=included, 0=excluded
1202.484   0.8235   0.4070   1.0000   1
1202.514   1.0418   0.4474   1.0000   1
1202.544   0.9429   0.4359   1.0000   1
1202.574   0.9628   0.4406   1.0000   1
1202.604   0.6620   0.3836   1.0000   1
1202.634   0.8833   0.4218   1.0000   1
1202.664   1.1767   0.4686   1.0000   1
1202.694   1.1196   0.4653   1.0000   1
1202.724   1.1345   0.4512   1.0000   1
1202.754   1.0134   0.4404   1.0000   1
1202.783   0.8806   0.3928   1.0000   1
1202.813   0.9996   0.4409   1.0000   1
1202.843   0.8653   0.4230   1.0000   1
1202.873   1.0103   0.4437   1.0000   1
1202.903   1.0744   0.4512   1.0000   1
1202.933   0.9090   0.4320   1.0000   1
1202.963   1.1728   0.4650   1.0000   1
1202.993   0.8214   0.4061   1.0000   1
1203.023   1.1748   0.4775   1.0000   1
1203.052   0.9197   0.4354   1.0000   1
1203.082   0.7297   0.3944   1.0000   1
1203.112   1.4484   0.5063   1.0000   1
1203.142   1.1905   0.4766   1.0000   1
1203.172   1.2726   0.4871   1.0000   1
1203.202   1.0058   0.4305   1.0000   1
1203.232   1.1410   0.4599   1.0000   1
1203.262   1.1918   0.4785   1.0000   1
1203.292   0.6679   0.3750   1.0000   1
1203.321   0.9162   0.4300   1.0000   1
1203.351   1.2100   0.4843   1.0000   1
1203.381   0.9782   0.4399   1.0000   1
1203.411   1.0052   0.4342   1.0000   1
1203.441   1.2853   0.4919   1.0000   1
1203.471   0.8881   0.4281   1.0000   1
1203.501   1.0123   0.4512   1.0000   1
1203.531   0.6861   0.3865   1.0000   1
1203.561   0.6916   0.3962   1.0000   1
1203.590   1.5499   0.5263   1.0000   1
1203.620   0.8616   0.4230   1.0000   1
1203.650   1.0154   0.4414   1.0000   1
1203.680   0.9765   0.4521   1.0000   1
1203.710   0.8416   0.4214   1.0000   1
1203.740   1.2700   0.4862   1.0000   1
1203.770   1.0566   0.4629   1.0000   1
1203.800   1.0072   0.4522   1.0000   1
1203.830   0.9145   0.4298   1.0000   1
1203.859   1.0871   0.4694   1.0000   1
1203.889   1.2570   0.4906   1.0000   1
1203.919   0.8170   0.4256   1.0000   1
1203.949   0.9501   0.4509   1.0000   1
1203.979   1.2180   0.4828   1.0000   1
1204.009   1.2147   0.4866   1.0000   1
1204.039   1.2646   0.4963   1.0000   1
1204.069   1.5623   0.5273   1.0000   1
1204.099   1.1351   0.4754   1.0000   1
1204.129   1.0252   0.4637   1.0000   1
1204.158   0.7580   0.4194   0.9999   1
1204.188   1.0152   0.4615   0.9999   1
1204.218   0.7008   0.4020   0.9999   1
1204.248   1.0088   0.4458   0.9999   1
1204.278   1.2648   0.4878   0.9999   1
1204.308   1.0368   0.4559   0.9999   1
1204.338   0.7998   0.3981   0.9999   1
1204.368   0.6594   0.3781   0.9998   1
1204.398   1.0680   0.4700   0.9997   1
1204.427   1.2400   0.4930   0.9994   1
1204.457   0.9630   0.4363   0.9989   1
1204.487   1.0861   0.4729   0.9979   1
1204.517   0.7498   0.4091   0.9959   1
1204.547   1.0424   0.4692   0.9922   1
1204.577   1.1784   0.4781   0.9858   1
1204.607   0.8358   0.4278   0.9749   1
1204.637   0.6849   0.3924   0.9573   1
1204.667   0.8276   0.4276   0.9297   1
1204.696   0.8242   0.4042   0.8895   1
1204.726   0.7621   0.4171   0.8340   1
1204.756   0.6658   0.3854   0.7621   1
1204.786   0.5354   0.3725   0.6750   1
1204.816   0.4945   0.3609   0.5768   1
1204.846   0.7002   0.4078   0.4748   1
1204.876   0.7184   0.4194   0.3769   1
1204.906   0.2667   0.2920   0.2899   1
1204.936   0.0930   0.2507   0.2183   1
1204.965   0.4618   0.3487   0.1638   1
1204.995   0.1695   0.2620   0.1250   1
1205.025   0.1727   0.2663   0.0993   1
1205.055   0.1271   0.2458   0.0842   1
1205.085   0.0453   0.2352   0.0777   1
1205.115   0.0162   0.2228   0.0792   1
1205.145   0.1268   0.2402   0.0887   1
1205.175   0.0129   0.2219   0.1075   1
1205.205   0.1667   0.2698   0.1379   1
1205.234   0.1658   0.2657   0.1823   1
1205.264   0.2815   0.2875   0.2431   1
1205.294   0.0808   0.2350   0.3209   1
1205.324   0.5146   0.3371   0.4127   1
1205.354   0.5839   0.3640   0.5130   1
1205.384   0.6968   0.4173   0.6144   1
1205.414   0.9848   0.4633   0.7093   1
1205.444   0.9793   0.4601   0.7910   1
1205.474   0.9378   0.4545   0.8566   1
1205.503   1.3448   0.5245   0.9062   1
1205.533   0.5801   0.3952   0.9413   1
1205.563   1.0606   0.4746   0.9649   1
1205.593   0.9803   0.4709   0.9796   1
1205.623   0.9795   0.4650   0.9886   1
1205.653   0.8125   0.4390   0.9938   1
1205.683   0.9954   0.4722   0.9967   1
1205.713   0.6719   0.4243   0.9983   1
1205.743   0.7515   0.4430   0.9990   1
1205.773   1.0579   0.4889   0.9994   1
1205.802   1.2925   0.5338   0.9995   1
1205.832   1.1543   0.4877   0.9994   1
1205.862   0.8899   0.4695   0.9990   1
1205.892   1.1185   0.5002   0.9982   1
1205.922   1.3746   0.5315   0.9965   1
1205.952   1.2715   0.5215   0.9932   1
1205.982   1.0796   0.4994   0.9871   1
1206.012   1.0170   0.4870   0.9763   1
1206.042   1.2436   0.5267   0.9580   1
1206.071   0.9722   0.4803   0.9280   1
1206.101   0.8333   0.4594   0.8822   1
1206.131   0.9721   0.4580   0.8169   1
1206.161   0.6558   0.4001   0.7297   1
1206.191   0.4534   0.3626   0.6225   1
1206.221   0.5821   0.3923   0.5019   1
1206.251   0.4259   0.3516   0.3796   1
1206.281   0.2352   0.2893   0.2678   1
1206.311   0.1891   0.2875   0.1759   1
1206.340   0.0861   0.2541   0.1080   1
1206.370   0.0912   0.2560   0.0634   1
1206.400   0.0976   0.2578   0.0363   1
1206.430   0.0126   0.2333   0.0210   1
1206.460   0.0132   0.2326   0.0128   1
1206.490   0.0466   0.2442   0.0088   1
1206.520   0.0591   0.2469   0.0072   1
1206.550   -0.0293   0.2258   0.0072   1
1206.580   -0.0296   0.2261   0.0089   1
1206.609   0.0107   0.2342   0.0131   1
1206.639   -0.0294   0.2265   0.0213   1
1206.669   0.0514   0.2505   0.0370   1
1206.699   0.1276   0.2656   0.0651   1
1206.729   0.1775   0.2790   0.1110   1
1206.759   0.2034   0.2897   0.1796   1
1206.789   0.1348   0.2639   0.2721   1
1206.819   0.4168   0.3419   0.3845   1
1206.849   0.7443   0.4419   0.5073   1
1206.878   0.6068   0.3806   0.6273   1
1206.908   0.4667   0.3642   0.7337   1
1206.938   1.1064   0.4979   0.8203   1
1206.968   0.8959   0.4518   0.8851   1
1206.998   1.2242   0.5284   0.9297   1
1207.028   0.9682   0.4860   0.9588   1
1207.058   0.9918   0.4863   0.9769   1
1207.088   0.9195   0.4811   0.9875   1
1207.118   0.9953   0.4941   0.9935   1
1207.147   1.3014   0.5385   0.9967   1
1207.177   1.1890   0.4945   0.9983   1
1207.207   1.3113   0.5335   0.9991   1
1207.237   1.0742   0.5068   0.9995   1
1207.267   1.2128   0.5196   0.9997   1
1207.297   1.3329   0.5394   0.9998   1
1207.327   1.0058   0.4975   0.9999   1
1207.357   0.9295   0.4801   0.9999   1
1207.387   1.1825   0.5089   0.9999   1
1207.417   1.4223   0.5593   0.9999   1
1207.446   1.0122   0.4961   0.9999   1
1207.476   1.2244   0.5282   0.9999   1
1207.506   0.9856   0.4470   0.9999   1
1207.536   1.5384   0.5796   0.9999   1
1207.566   1.1504   0.5159   0.9999   1
1207.596   0.8472   0.4324   0.9999   1
1207.626   1.0929   0.5086   0.9999   1
1207.656   0.9144   0.4745   0.9999   1
1207.685   0.5536   0.4153   0.9999   1
1207.715   1.2576   0.5402   0.9999   1
1207.745   1.0683   0.5054   1.0000   1
1207.775   0.7173   0.4311   1.0000   1
1207.805   1.2973   0.5408   1.0000   1
1207.835   0.9982   0.4726   1.0000   1
1207.865   1.2355   0.5415   1.0000   1
1207.895   0.7734   0.4548   1.0000   1
1207.925   0.9914   0.5010   1.0000   1
1207.955   1.2344   0.5355   1.0000   1
1207.984   1.1587   0.5248   1.0000   1
1208.014   1.1131   0.5118   1.0000   1
1208.044   0.7897   0.4605   1.0000   1
1208.074   0.9386   0.4961   1.0000   1
1208.104   0.9490   0.4887   1.0000   1
1208.134   1.1324   0.5290   1.0000   1
1208.164   1.3035   0.5494   1.0000   1
1208.194   1.0739   0.5171   1.0000   1
1208.224   0.8299   0.4606   1.0000   1
1208.253   0.8139   0.4759   1.0000   1
1208.283   1.2384   0.5319   1.0000   1
1208.313   1.3773   0.5806   1.0000   1
1208.343   0.9111   0.4840   1.0000   1
1208.373   1.0008   0.5023   1.0000   1
1208.403   0.7865   0.4899   1.0000   1
1208.433   1.0551   0.5310   1.0000   1
1208.463   1.1582   0.5426   1.0000   1
1208.493   1.1605   0.5432   1.0000   1
1208.522   1.1088   0.5450   1.0000   1
1208.552   0.9292   0.5095   1.0000   1
1208.582   1.0678   0.5181   1.0000   1
1208.612   1.2793   0.5588   1.0000   1
1208.642   1.1069   0.5399   1.0000   1
1208.672   0.7647   0.4637   1.0000   1
1208.702   1.2122   0.5327   1.0000   1
1208.732   1.0271   0.5122   1.0000   1
1208.762   1.2759   0.5584   1.0000   1
1208.791   0.9801   0.5075   1.0000   1
1208.821   1.4187   0.5757   1.0000   1
1208.851   1.2149   0.5168   1.0000   1
1208.881   0.9519   0.5043   1.0000   1
1208.911   1.2226   0.5574   1.0000   1
1208.941   0.9979   0.4975   1.0000   1
1208.971   1.0220   0.5191   1.0000   1
1209.001   1.0945   0.5317   1.0000   1
1209.031   0.8254   0.4488   1.0000   1
1209.060   1.1619   0.5350   1.0000   1
1209.090   1.5460   0.6050   1.0000   1
1209.120   0.9511   0.5154   1.0000   1
1209.150   0.9095   0.4931   1.0000   1
1209.180   0.9349   0.4649   1.0000   1
1209.210   1.2251   0.5486   1.0000   1
1209.240   0.9059   0.4883   1.0000   1
1209.270   0.7703   0.4602   1.0000   1
1209.300   0.8166   0.4351   1.0000   1
1209.330   1.3840   0.5786   1.0000   1
1209.359   0.9668   0.5183   1.0000   1
1209.389   1.0419   0.5264   1.0000   1
1209.419   0.8682   0.4897   1.0000   1
1209.449   1.0068   0.5282   1.0000   1
1209.479   0.7472   0.4743   1.0000   1
1209.509   0.7880   0.4696   1.0000   1
1209.539   0.9881   0.5251   1.0000   1
1209.569   0.9569   0.4934   1.0000   1
1209.599   0.8862   0.4834   1.0000   1
1209.628   1.2081   0.5623   1.0000   1
1209.658   1.0241   0.5248   1.0000   1
1209.688   1.1128   0.5509   1.0000   1
1209.718   1.2811   0.5467   1.0000   1
1209.748   0.7233   0.4487   1.0000   1
1209.778   0.9460   0.5130   1.0000   1
1209.808   0.8079   0.4538   1.0000   1
1209.838   0.9218   0.4649   1.0000   1
1209.868   1.0810   0.5397   1.0000   1
1209.897   1.1708   0.5519   1.0000   1
1209.927   0.8938   0.4906   1.0000   1
1209.957   0.7429   0.4463   1.0000   1
1209.987   1.2667   0.5790   1.0000   1
1210.017   1.1513   0.5621   1.0000   1
1210.047   0.4100   0.3847   1.0000   1
1210.077   1.0945   0.5455   1.0000   1
1210.107   0.8394   0.4977   1.0000   1
1210.137   0.5712   0.4067   1.0000   1
1210.166   1.0812   0.5454   1.0000   1
1210.196   1.2821   0.5772   1.0000   1
1210.226   1.2122   0.5729   1.0000   1
1210.256   1.0573   0.5316   1.0000   1
1210.286   0.7120   0.4736   1.0000   1
1210.316   0.7321   0.4601   1.0000   1
1210.346   0.9050   0.5177   1.0000   1
1210.376   0.8859   0.5197   1.0000   1
1210.406   0.9703   0.5262   1.0000   1
1210.435   1.4298   0.6116   1.0000   1
1210.465   0.8357   0.4998   1.0000   1
1210.495   1.2885   0.5704   1.0000   1
