# Best-fit normalized data and profile from VoigtFit
# column 1 : Wavelength
# column 2 : Normalized flux
# column 3 : Normalized error
# column 4 : Best-fit profile
# column 5 : Pixel mask, 1=included, 0=excluded
1186.474   1.0496   0.0689   1.0000   1
1186.504   1.1013   0.0705   1.0000   1
1186.534   1.0551   0.0691   1.0000   1
1186.564   1.1283   0.0712   1.0000   1
1186.594   1.0633   0.0693   1.0000   1
1186.624   1.0062   0.0675   1.0000   1
1186.653   1.0425   0.0686   1.0000   1
1186.683   1.0682   0.0693   1.0000   1
1186.713   1.0515   0.0688   1.0000   1
1186.743   1.0551   0.0689   1.0000   1
1186.773   1.0445   0.0686   1.0000   1
1186.803   0.9753   0.0664   1.0000   1
1186.833   1.0491   0.0687   1.0000   1
1186.863   1.0000   0.0672   1.0000   1
1186.892   1.0620   0.0691   1.0000   1
1186.922   1.0273   0.0680   1.0000   1
1186.952   1.0184   0.0677   1.0000   1
1186.982   1.0172   0.0677   1.0000   1
1187.012   1.1141   0.0706   1.0000   1
1187.042   1.0250   0.0679   1.0000   1
1187.072   0.9943   0.0669   1.0000   1
1187.102   1.0591   0.0690   1.0000   1
1187.131   0.9971   0.0670   1.0000   1
1187.161   1.0331   0.0681   1.0000   1
1187.191   1.0154   0.0675   1.0000   1
1187.221   0.9886   0.0667   1.0000   1
1187.251   1.0123   0.0675   1.0000   1
1187.281   1.0513   0.0687   1.0000   1
1187.311   1.0988   0.0701   1.0000   1
1187.341   1.0761   0.0694   1.0000   1
1187.371   1.0216   0.0677   1.0000   1
1187.400   0.9635   0.0658   1.0000   1
1187.430   1.0494   0.0685   1.0000   1
1187.460   1.0446   0.0684   1.0000   1
1187.490   1.0640   0.0689   1.0000   1
1187.520   1.0130   0.0673   1.0000   1
1187.550   1.0164   0.0675   1.0000   1
1187.580   0.9917   0.0667   1.0000   1
1187.610   1.0444   0.0683   1.0000   1
1187.639   1.0579   0.0687   1.0000   1
1187.669   0.9938   0.0667   1.0000   1
1187.699   0.9843   0.0664   1.0000   1
1187.729   1.0662   0.0690   1.0000   1
1187.759   1.0129   0.0673   1.0000   1
1187.789   0.9488   0.0652   1.0000   1
1187.819   1.0240   0.0676   1.0000   1
1187.849   0.9977   0.0668   1.0000   1
1187.879   1.0839   0.0695   1.0000   1
1187.908   0.9815   0.0662   1.0000   1
1187.938   1.0396   0.0680   1.0000   1
1187.968   1.0368   0.0679   1.0000   1
1187.998   0.9861   0.0664   1.0000   1
1188.028   1.0329   0.0678   1.0000   1
1188.058   1.0928   0.0696   1.0000   1
1188.088   1.0276   0.0676   1.0000   1
1188.118   1.0338   0.0679   1.0000   1
1188.147   1.0529   0.0683   1.0000   1
1188.177   1.1012   0.0698   1.0000   1
1188.207   1.0340   0.0678   1.0000   1
1188.237   1.0438   0.0681   1.0000   1
1188.267   1.1306   0.0707   1.0000   1
1188.297   1.0797   0.0691   1.0000   1
1188.327   1.0197   0.0673   1.0000   1
1188.357   0.9729   0.0658   1.0000   1
1188.386   1.0122   0.0670   1.0000   1
1188.416   1.0373   0.0678   1.0000   1
1188.446   1.0416   0.0679   1.0000   1
1188.476   0.9787   0.0660   1.0000   1
1188.506   1.0321   0.0677   1.0000   1
1188.536   1.0786   0.0690   1.0000   1
1188.566   1.0146   0.0671   1.0000   1
1188.596   1.0381   0.0678   1.0000   1
1188.625   1.0262   0.0674   1.0000   1
1188.655   1.0389   0.0678   1.0000   1
1188.685   1.0379   0.0680   1.0000   1
1188.715   0.9726   0.0665   1.0000   1
1188.745   0.8255   0.0617   1.0000   1
1188.775   0.7437   0.0590   1.0000   1
1188.805   0.7083   0.0575   1.0000   1
1188.835   0.8203   0.0612   1.0000   1
1188.865   0.8724   0.0632   1.0000   1
1188.894   0.9823   0.0669   1.0000   1
1188.924   0.9888   0.0671   1.0000   1
1188.954   1.0117   0.0678   1.0000   1
1188.984   0.9377   0.0655   1.0000   1
1189.014   0.9742   0.0668   1.0000   1
1189.044   0.9946   0.0676   1.0000   1
1189.074   0.9397   0.0656   1.0000   1
1189.104   0.9668   0.0663   1.0000   1
1189.133   0.9851   0.0664   1.0000   1
1189.163   1.0042   0.0668   1.0000   1
1189.193   1.0387   0.0676   0.9999   1
1189.223   1.0226   0.0671   0.9999   1
1189.253   1.0155   0.0669   0.9999   1
1189.283   0.9368   0.0644   0.9999   1
1189.313   1.0377   0.0674   0.9999   1
1189.343   0.9900   0.0660   0.9999   1
1189.372   0.9973   0.0663   0.9999   1
1189.402   0.9720   0.0655   0.9998   1
1189.432   0.9109   0.0635   0.9997   1
1189.462   0.9402   0.0645   0.9992   1
1189.492   0.8967   0.0630   0.9934   1
1189.522   0.8626   0.0619   0.9486   1
1189.552   0.7316   0.0572   0.7846   1
1189.582   0.5329   0.0495   0.5528   1
1189.612   0.5604   0.0506   0.5227   1
1189.641   0.6836   0.0555   0.7108   1
1189.671   0.7941   0.0595   0.8487   1
1189.701   0.8680   0.0620   0.8678   1
1189.731   0.8146   0.0602   0.8620   1
1189.761   0.8429   0.0611   0.8752   1
1189.791   0.8898   0.0627   0.9078   1
1189.821   0.9944   0.0660   0.9443   1
1189.851   1.0393   0.0676   0.9728   1
1189.880   1.0207   0.0674   0.9890   1
1189.910   1.0683   0.0692   0.9963   1
1189.940   1.0307   0.0682   0.9988   1
1189.970   1.0402   0.0684   0.9993   1
1190.000   0.9755   0.0664   0.9989   1
1190.030   0.9632   0.0661   0.9974   1
1190.060   0.9751   0.0664   0.9936   1
1190.090   0.8844   0.0634   0.9852   1
1190.119   0.8376   0.0617   0.9672   1
1190.149   0.7619   0.0587   0.9336   1
1190.179   0.7075   0.0569   0.8779   1
1190.209   0.5843   0.0521   0.7934   1
1190.239   0.6458   0.0547   0.6840   1
1190.269   0.5732   0.0517   0.5594   1
1190.299   0.4443   0.0461   0.4365   1
1190.329   0.3552   0.0413   0.3316   1
1190.359   0.1923   0.0313   0.2545   1
1190.388   0.1415   0.0275   0.2086   1
1190.418   0.0970   0.0235   0.1912   1
1190.448   0.1243   0.0260   0.2021   1
1190.478   0.1547   0.0285   0.2419   1
1190.508   0.2484   0.0349   0.3116   1
1190.538   0.3768   0.0420   0.4111   1
1190.568   0.5515   0.0500   0.5312   1
1190.598   0.6431   0.0537   0.6573   1
1190.627   0.7984   0.0594   0.7711   1
1190.657   0.8542   0.0612   0.8612   1
1190.687   0.9283   0.0636   0.9237   1
1190.717   0.9549   0.0645   0.9613   1
1190.747   1.0014   0.0660   0.9821   1
1190.777   1.0159   0.0664   0.9923   1
1190.807   1.0684   0.0679   0.9969   1
1190.837   0.9884   0.0655   0.9988   1
1190.866   1.0101   0.0662   0.9995   1
1190.896   1.0468   0.0673   0.9998   1
1190.926   0.9842   0.0653   0.9998   1
1190.956   1.0216   0.0665   0.9999   1
1190.986   0.9944   0.0657   0.9999   1
1191.016   0.9888   0.0655   0.9999   1
1191.046   1.0786   0.0683   0.9999   1
1191.076   1.0538   0.0680   0.9999   1
1191.106   1.0549   0.0684   0.9999   1
1191.135   1.0314   0.0680   0.9999   1
1191.165   1.0903   0.0698   0.9999   1
1191.195   1.0815   0.0697   0.9999   1
1191.225   1.0241   0.0679   0.9999   1
1191.255   1.0477   0.0685   0.9999   1
1191.285   1.0432   0.0683   0.9999   1
1191.315   1.1155   0.0705   0.9999   1
1191.345   1.0663   0.0692   0.9999   1
1191.374   1.0018   0.0672   0.9999   1
1191.404   1.1056   0.0703   0.9999   1
1191.434   1.0496   0.0687   0.9999   1
1191.464   1.0323   0.0682   0.9999   1
1191.494   1.0352   0.0681   0.9999   1
1191.524   1.0612   0.0685   0.9999   1
1191.554   1.0592   0.0682   0.9999   1
1191.584   1.0653   0.0680   0.9999   1
1191.613   1.0270   0.0667   0.9999   1
1191.643   1.0182   0.0662   0.9999   1
1191.673   1.0423   0.0669   0.9999   1
1191.703   1.0999   0.0686   0.9999   1
1191.733   1.0870   0.0682   0.9999   1
1191.763   1.0415   0.0669   0.9999   1
1191.793   1.0899   0.0683   0.9999   1
1191.823   1.0573   0.0673   0.9999   1
1191.852   1.0317   0.0666   0.9999   1
1191.882   1.1037   0.0687   0.9999   1
1191.912   1.0536   0.0672   0.9999   1
1191.942   1.1071   0.0688   0.9999   1
1191.972   1.0524   0.0671   0.9999   1
1192.002   1.0208   0.0662   0.9999   1
1192.032   1.1403   0.0697   0.9999   1
1192.062   1.0081   0.0658   0.9999   1
1192.092   1.0682   0.0676   0.9999   1
1192.121   0.9887   0.0651   0.9999   1
1192.151   1.0152   0.0659   0.9998   1
1192.181   0.9307   0.0635   0.9998   1
1192.211   0.9797   0.0655   0.9998   1
1192.241   0.9056   0.0632   0.9997   1
1192.271   0.9949   0.0664   0.9996   1
1192.301   0.9739   0.0662   0.9995   1
1192.331   0.9609   0.0663   0.9988   1
1192.360   0.9424   0.0655   0.9922   1
1192.390   0.8378   0.0614   0.9396   1
1192.420   0.7471   0.0582   0.7519   1
1192.450   0.5343   0.0500   0.4674   1
1192.480   0.4144   0.0449   0.3867   1
1192.510   0.5201   0.0495   0.5699   1
1192.540   0.7452   0.0586   0.7319   1
1192.570   0.7937   0.0601   0.7490   1
1192.600   0.8112   0.0605   0.7331   1
1192.629   0.6974   0.0561   0.7518   1
1192.659   0.8291   0.0604   0.8093   1
1192.689   0.8661   0.0614   0.8795   1
1192.719   0.9213   0.0629   0.9382   1
1192.749   1.0053   0.0655   0.9740   1
1192.779   0.9392   0.0633   0.9911   1
1192.809   1.0196   0.0658   0.9972   1
1192.839   1.0101   0.0656   0.9986   1
1192.868   0.9632   0.0641   0.9980   1
1192.898   0.9644   0.0641   0.9953   1
1192.928   0.9217   0.0628   0.9885   1
1192.958   0.7716   0.0578   0.9731   1
1192.988   0.6030   0.0514   0.9407   1
1193.018   0.5942   0.0512   0.8815   1
1193.048   0.6048   0.0516   0.7870   1
1193.078   0.7469   0.0569   0.6536   1
1193.107   0.7169   0.0558   0.4964   1
1193.137   0.5756   0.0503   0.3401   1
1193.167   0.3802   0.0415   0.2113   1
1193.197   0.2470   0.0343   0.1212   1
1193.227   0.1709   0.0292   0.0680   1
1193.257   0.0951   0.0230   0.0419   1
1193.287   0.1008   0.0234   0.0321   1
1193.317   0.0894   0.0220   0.0345   1
1193.346   0.1275   0.0259   0.0503   1
1193.376   0.1437   0.0270   0.0860   1
1193.406   0.2339   0.0335   0.1533   1
1193.436   0.3372   0.0394   0.2602   1
1193.466   0.4892   0.0466   0.4028   1
1193.496   0.6067   0.0515   0.5627   1
1193.526   0.6830   0.0545   0.7122   1
1193.556   0.7489   0.0568   0.8310   1
1193.586   0.8564   0.0605   0.9100   1
1193.615   0.9626   0.0639   0.9566   1
1193.645   0.9702   0.0641   0.9811   1
1193.675   0.9754   0.0642   0.9921   1
1193.705   0.9220   0.0626   0.9969   1
1193.735   0.9987   0.0650   0.9988   1
1193.765   1.0938   0.0678   0.9994   1
1193.795   1.0227   0.0657   0.9997   1
1193.825   0.9914   0.0647   0.9998   1
1193.854   0.9355   0.0630   0.9998   1
1193.884   1.0016   0.0650   0.9998   1
1193.914   0.9295   0.0628   0.9999   1
1193.944   0.8674   0.0608   0.9999   1
1193.974   0.8041   0.0587   0.9999   1
1194.004   0.8455   0.0600   0.9999   1
1194.034   0.9163   0.0623   0.9999   1
1194.064   1.0555   0.0666   0.9999   1
1194.093   1.0371   0.0660   0.9999   1
1194.123   0.9955   0.0647   0.9999   1
1194.153   1.0524   0.0665   0.9999   1
1194.183   1.0483   0.0663   0.9999   1
1194.213   0.9772   0.0642   0.9999   1
1194.243   0.9526   0.0634   0.9999   1
1194.273   0.9807   0.0643   0.9999   1
1194.303   0.9878   0.0645   0.9999   1
1194.333   0.9876   0.0645   0.9999   1
1194.362   0.9889   0.0645   1.0000   1
1194.392   1.0110   0.0652   1.0000   1
1194.422   0.9383   0.0629   1.0000   1
1194.452   0.8929   0.0614   1.0000   1
1194.482   0.8979   0.0616   1.0000   1
1194.512   0.9398   0.0629   1.0000   1
1194.542   0.8690   0.0607   1.0000   1
1194.572   0.9140   0.0621   1.0000   1
1194.601   0.9312   0.0626   1.0000   1
1194.631   0.9617   0.0636   1.0000   1
1194.661   0.9962   0.0647   1.0000   1
1194.691   0.9479   0.0632   1.0000   1
1194.721   0.9598   0.0635   1.0000   1
1194.751   0.9209   0.0623   1.0000   1
1194.781   0.8483   0.0599   1.0000   1
1194.811   0.7742   0.0574   1.0000   1
1194.840   0.8222   0.0590   1.0000   1
1194.870   0.8380   0.0595   1.0000   1
1194.900   0.8676   0.0605   1.0000   1
1194.930   0.9382   0.0628   1.0000   1
1194.960   0.9183   0.0621   1.0000   1
1194.990   0.9232   0.0623   1.0000   1
1195.020   0.9578   0.0634   1.0000   1
1195.050   0.9974   0.0646   1.0000   1
1195.080   1.0721   0.0668   1.0000   1
1195.109   1.0328   0.0656   1.0000   1
1195.139   1.0986   0.0675   1.0000   1
1195.169   1.0356   0.0657   1.0000   1
1195.199   1.0208   0.0652   1.0000   1
1195.229   1.0879   0.0672   1.0000   1
1195.259   1.0654   0.0665   1.0000   1
1195.289   1.0660   0.0665   1.0000   1
1195.319   1.1348   0.0685   1.0000   1
1195.348   1.0601   0.0664   1.0000   1
1195.378   1.0807   0.0670   1.0000   1
1195.408   1.0656   0.0664   1.0000   1
1195.438   1.0435   0.0658   1.0000   1
1195.468   1.0258   0.0653   1.0000   1
1195.498   1.0225   0.0652   1.0000   1
1195.528   1.0829   0.0669   1.0000   1
1195.558   1.0192   0.0651   1.0000   1
1195.587   1.0763   0.0668   1.0000   1
1195.617   1.0944   0.0673   1.0000   1
1195.647   1.0591   0.0662   1.0000   1
1195.677   1.1068   0.0676   1.0000   1
1195.707   1.0160   0.0650   1.0000   1
1195.737   1.0212   0.0651   1.0000   1
1195.767   1.0955   0.0673   1.0000   1
1195.797   1.0531   0.0660   1.0000   1
1195.827   1.0954   0.0673   1.0000   1
1195.856   1.1107   0.0677   1.0000   1
1195.886   1.0679   0.0664   1.0000   1
1195.916   1.1248   0.0681   1.0000   1
1195.946   1.0921   0.0671   1.0000   1
1195.976   1.1075   0.0676   1.0000   1
1196.006   1.0998   0.0674   1.0000   1
1196.036   1.0541   0.0660   1.0000   1
1196.066   1.0143   0.0648   1.0000   1
1196.095   1.0025   0.0645   1.0000   1
1196.125   1.0348   0.0654   1.0000   1
1196.155   1.0565   0.0660   1.0000   1
1196.185   1.0599   0.0661   1.0000   1
1196.215   1.0373   0.0655   1.0000   1
1196.245   1.0312   0.0653   1.0000   1
1196.275   0.9981   0.0643   1.0000   1
1196.305   1.0774   0.0666   1.0000   1
1196.334   1.0356   0.0654   1.0000   1
1196.364   1.0816   0.0667   1.0000   1
1196.394   1.0116   0.0646   1.0000   1
1196.424   1.0786   0.0666   1.0000   1
1196.454   1.0465   0.0657   1.0000   1
1196.484   1.0233   0.0650   1.0000   1
1196.514   1.0293   0.0651   1.0000   1
1196.544   1.0750   0.0665   1.0000   1
1196.573   1.0339   0.0653   1.0000   1
1196.603   1.0415   0.0655   1.0000   1
1196.633   1.0315   0.0652   1.0000   1
1196.663   1.0389   0.0654   1.0000   1
1196.693   1.0360   0.0653   1.0000   1
1196.723   1.0788   0.0665   1.0000   1
1196.753   1.0336   0.0652   1.0000   1
1196.783   1.0495   0.0657   1.0000   1
1196.813   1.0043   0.0643   1.0000   1
1196.842   1.0376   0.0653   1.0000   1
1196.872   1.0656   0.0661   1.0000   1
1196.902   0.9835   0.0636   1.0000   1
1196.932   1.0066   0.0644   1.0000   1
1196.962   1.0258   0.0649   1.0000   1
1196.992   1.0236   0.0648   1.0000   1
1197.022   0.9762   0.0636   1.0000   1
1197.052   1.0167   0.0650   1.0000   1
1197.081   0.9647   0.0637   1.0000   1
1197.111   0.9814   0.0645   1.0000   1
1197.141   0.9832   0.0650   1.0000   1
1197.171   0.8984   0.0621   1.0000   1
1197.201   0.9448   0.0636   1.0000   1
1197.231   0.9670   0.0643   1.0000   1
1197.261   0.9925   0.0649   1.0000   1
