# Best-fit normalized data and profile from VoigtFit
# column 1 : Wavelength
# column 2 : Normalized flux
# column 3 : Normalized error
# column 4 : Best-fit profile
# column 5 : Pixel mask, 1=included, 0=excluded
1186.474   1.0324   0.0677   1.0000   1
1186.504   1.0833   0.0693   1.0000   1
1186.534   1.0379   0.0679   1.0000   1
1186.564   1.1100   0.0701   1.0000   1
1186.594   1.0460   0.0681   1.0000   1
1186.624   0.9899   0.0664   1.0000   1
1186.653   1.0256   0.0675   1.0000   1
1186.683   1.0510   0.0682   1.0000   1
1186.713   1.0346   0.0677   1.0000   1
1186.743   1.0382   0.0678   1.0000   1
1186.773   1.0278   0.0675   1.0000   1
1186.803   0.9598   0.0653   1.0000   1
1186.833   1.0325   0.0676   1.0000   1
1186.863   0.9842   0.0661   1.0000   1
1186.892   1.0452   0.0680   1.0000   1
1186.922   1.0111   0.0669   1.0000   1
1186.952   1.0024   0.0667   1.0000   1
1186.982   1.0013   0.0666   1.0000   1
1187.012   1.0967   0.0695   1.0000   1
1187.042   1.0090   0.0668   1.0000   1
1187.072   0.9788   0.0659   1.0000   1
1187.102   1.0427   0.0679   1.0000   1
1187.131   0.9817   0.0659   1.0000   1
1187.161   1.0171   0.0671   1.0000   1
1187.191   0.9997   0.0665   1.0000   1
1187.221   0.9734   0.0657   1.0000   1
1187.251   0.9968   0.0664   1.0000   1
1187.281   1.0352   0.0676   1.0000   1
1187.311   1.0820   0.0690   1.0000   1
1187.341   1.0598   0.0683   1.0000   1
1187.371   1.0061   0.0666   1.0000   1
1187.400   0.9489   0.0648   1.0000   1
1187.430   1.0336   0.0675   1.0000   1
1187.460   1.0289   0.0674   1.0000   1
1187.490   1.0481   0.0679   1.0000   1
1187.520   0.9979   0.0663   1.0000   1
1187.550   1.0013   0.0665   1.0000   1
1187.580   0.9770   0.0657   1.0000   1
1187.610   1.0290   0.0673   1.0000   1
1187.639   1.0422   0.0677   1.0000   1
1187.669   0.9792   0.0657   1.0000   1
1187.699   0.9699   0.0655   1.0000   1
1187.729   1.0506   0.0680   1.0000   1
1187.759   0.9981   0.0663   1.0000   1
1187.789   0.9350   0.0643   1.0000   1
1187.819   1.0092   0.0666   1.0000   1
1187.849   0.9833   0.0658   1.0000   1
1187.879   1.0683   0.0685   1.0000   1
1187.908   0.9674   0.0653   1.0000   1
1187.938   1.0247   0.0670   1.0000   1
1187.968   1.0220   0.0670   1.0000   1
1187.998   0.9721   0.0655   1.0000   1
1188.028   1.0183   0.0669   1.0000   1
1188.058   1.0774   0.0686   1.0000   1
1188.088   1.0130   0.0666   1.0000   1
1188.118   1.0192   0.0669   1.0000   1
1188.147   1.0381   0.0673   1.0000   1
1188.177   1.0858   0.0688   1.0000   1
1188.207   1.0196   0.0669   1.0000   1
1188.237   1.0293   0.0671   1.0000   1
1188.267   1.1149   0.0697   1.0000   1
1188.297   1.0648   0.0682   1.0000   1
1188.327   1.0056   0.0664   1.0000   1
1188.357   0.9595   0.0649   1.0000   1
1188.386   0.9983   0.0661   1.0000   1
1188.416   1.0232   0.0669   1.0000   1
1188.446   1.0274   0.0670   1.0000   1
1188.476   0.9654   0.0651   1.0000   1
1188.506   1.0181   0.0667   1.0000   1
1188.536   1.0641   0.0681   1.0000   1
1188.566   1.0009   0.0662   1.0000   1
1188.596   1.0242   0.0669   1.0000   1
1188.625   1.0125   0.0665   1.0000   1
1188.655   1.0250   0.0669   1.0000   0
1188.685   1.0241   0.0671   1.0000   0
1188.715   0.9597   0.0656   1.0000   0
1188.745   0.8146   0.0609   1.0000   0
1188.775   0.7339   0.0583   1.0000   0
1188.805   0.6990   0.0567   1.0000   0
1188.835   0.8096   0.0604   1.0000   0
1188.865   0.8610   0.0623   1.0000   0
1188.894   0.9695   0.0660   1.0000   0
1188.924   0.9759   0.0663   1.0000   1
1188.954   0.9986   0.0670   1.0000   1
1188.984   0.9256   0.0647   1.0000   1
1189.014   0.9617   0.0659   1.0000   1
1189.044   0.9819   0.0667   1.0000   1
1189.074   0.9277   0.0648   1.0000   1
1189.104   0.9544   0.0654   1.0000   1
1189.133   0.9726   0.0656   1.0000   1
1189.163   0.9915   0.0659   1.0000   1
1189.193   1.0256   0.0667   0.9999   1
1189.223   1.0098   0.0663   0.9999   1
1189.253   1.0028   0.0660   0.9999   1
1189.283   0.9251   0.0636   0.9999   1
1189.313   1.0248   0.0666   0.9999   1
1189.343   0.9777   0.0652   0.9999   1
1189.372   0.9850   0.0655   0.9999   1
1189.402   0.9600   0.0647   0.9998   1
1189.432   0.8997   0.0627   0.9998   1
1189.462   0.9287   0.0637   0.9992   1
1189.492   0.8857   0.0622   0.9929   1
1189.522   0.8521   0.0611   0.9465   1
1189.552   0.7227   0.0566   0.7833   1
1189.582   0.5264   0.0489   0.5569   1
1189.612   0.5536   0.0500   0.5255   1
1189.641   0.6754   0.0548   0.7088   1
1189.671   0.7846   0.0588   0.8480   1
1189.701   0.8577   0.0612   0.8667   1
1189.731   0.8050   0.0595   0.8569   1
1189.761   0.8329   0.0604   0.8671   1
1189.791   0.8793   0.0620   0.9003   1
1189.821   0.9827   0.0652   0.9394   1
1189.851   1.0272   0.0668   0.9706   1
1189.880   1.0088   0.0666   0.9883   1
1189.910   1.0558   0.0684   0.9962   1
1189.940   1.0188   0.0674   0.9988   1
1189.970   1.0282   0.0677   0.9989   1
1190.000   0.9642   0.0657   0.9956   1
1190.030   0.9522   0.0653   0.9808   1
1190.060   0.9639   0.0656   0.9394   1
1190.090   0.8743   0.0627   0.8661   1
1190.119   0.8281   0.0610   0.7882   1
1190.149   0.7533   0.0580   0.7544   1
1190.179   0.6996   0.0562   0.7749   1
1190.209   0.5777   0.0515   0.7996   1
1190.239   0.6385   0.0541   0.7688   1
1190.269   0.5668   0.0511   0.6682   1
1190.299   0.4394   0.0455   0.5241   1
1190.329   0.3512   0.0408   0.3787   1
1190.359   0.1901   0.0310   0.2613   1
1190.388   0.1400   0.0272   0.1859   1
1190.418   0.0960   0.0233   0.1501   1
1190.448   0.1229   0.0257   0.1516   1
1190.478   0.1530   0.0282   0.1902   1
1190.508   0.2458   0.0346   0.2688   1
1190.538   0.3728   0.0416   0.3894   1
1190.568   0.5456   0.0495   0.5377   1
1190.598   0.6362   0.0531   0.6891   1
1190.627   0.7899   0.0587   0.8151   1
1190.657   0.8451   0.0606   0.9036   1
1190.687   0.9184   0.0629   0.9560   1
1190.717   0.9449   0.0638   0.9817   1
1190.747   0.9908   0.0653   0.9932   1
1190.777   1.0053   0.0657   0.9977   1
1190.807   1.0573   0.0672   0.9992   1
1190.837   0.9781   0.0648   0.9997   1
1190.866   0.9996   0.0655   0.9998   1
1190.896   1.0360   0.0666   0.9999   1
1190.926   0.9741   0.0647   0.9999   1
1190.956   1.0111   0.0658   0.9999   1
1190.986   0.9842   0.0650   0.9999   1
1191.016   0.9788   0.0648   0.9999   1
1191.046   1.0677   0.0676   0.9999   1
1191.076   1.0432   0.0673   0.9999   1
1191.106   1.0443   0.0677   0.9999   1
1191.135   1.0211   0.0673   0.9999   1
1191.165   1.0795   0.0691   0.9999   1
1191.195   1.0708   0.0690   0.9999   1
1191.225   1.0140   0.0672   0.9999   1
1191.255   1.0374   0.0678   0.9999   1
1191.285   1.0330   0.0676   0.9999   1
1191.315   1.1046   0.0698   0.9999   1
1191.345   1.0559   0.0685   0.9999   1
1191.374   0.9921   0.0665   0.9999   1
1191.404   1.0950   0.0696   0.9999   1
1191.434   1.0395   0.0681   0.9999   1
1191.464   1.0225   0.0675   0.9999   1
1191.494   1.0253   0.0674   0.9999   1
1191.524   1.0512   0.0679   0.9999   1
1191.554   1.0492   0.0675   0.9999   1
1191.584   1.0553   0.0674   0.9999   1
1191.613   1.0174   0.0661   0.9999   1
1191.643   1.0087   0.0656   0.9999   1
1191.673   1.0326   0.0663   0.9999   1
1191.703   1.0897   0.0680   0.9999   1
1191.733   1.0770   0.0676   0.9999   1
1191.763   1.0319   0.0663   0.9999   1
1191.793   1.0800   0.0676   0.9999   1
1191.823   1.0477   0.0667   0.9999   1
1191.852   1.0224   0.0660   0.9999   1
1191.882   1.0938   0.0680   0.9999   1
1191.912   1.0441   0.0666   0.9999   1
1191.942   1.0972   0.0681   0.9999   1
1191.972   1.0431   0.0665   0.9999   1
1192.002   1.0118   0.0656   0.9999   1
1192.032   1.1303   0.0691   0.9999   1
1192.062   0.9993   0.0652   0.9999   1
1192.092   1.0588   0.0670   0.9999   1
1192.121   0.9801   0.0645   0.9999   1
1192.151   1.0064   0.0653   0.9998   1
1192.181   0.9227   0.0629   0.9998   1
1192.211   0.9713   0.0649   0.9998   1
1192.241   0.8978   0.0627   0.9997   1
1192.271   0.9865   0.0658   0.9996   1
1192.301   0.9657   0.0656   0.9995   1
1192.331   0.9528   0.0657   0.9988   1
1192.360   0.9345   0.0649   0.9913   1
1192.390   0.8308   0.0609   0.9346   1
1192.420   0.7408   0.0577   0.7403   1
1192.450   0.5299   0.0496   0.4538   1
1192.480   0.4110   0.0445   0.3727   1
1192.510   0.5158   0.0491   0.5582   1
1192.540   0.7391   0.0581   0.7291   1
1192.570   0.7873   0.0597   0.7478   1
1192.600   0.8046   0.0600   0.7251   1
1192.629   0.6918   0.0557   0.7377   1
1192.659   0.8225   0.0600   0.7950   1
1192.689   0.8592   0.0609   0.8694   1
1192.719   0.9140   0.0624   0.9332   1
1192.749   0.9973   0.0649   0.9723   1
1192.779   0.9319   0.0628   0.9907   1
1192.809   1.0117   0.0653   0.9972   1
1192.839   1.0022   0.0651   0.9980   1
1192.868   0.9557   0.0636   0.9929   1
1192.898   0.9570   0.0637   0.9686   1
1192.928   0.9146   0.0623   0.8990   1
1192.958   0.7657   0.0574   0.7728   1
1192.988   0.5985   0.0510   0.6327   1
1193.018   0.5897   0.0508   0.5596   1
1193.048   0.6003   0.0512   0.5801   1
1193.078   0.7413   0.0565   0.6268   1
1193.107   0.7115   0.0554   0.6011   1
1193.137   0.5714   0.0499   0.4794   1
1193.167   0.3774   0.0412   0.3143   1
1193.197   0.2452   0.0340   0.1730   1
1193.227   0.1696   0.0289   0.0828   1
1193.257   0.0944   0.0228   0.0386   1
1193.287   0.1001   0.0232   0.0212   1
1193.317   0.0887   0.0218   0.0194   1
1193.346   0.1266   0.0257   0.0315   1
1193.376   0.1427   0.0268   0.0661   1
1193.406   0.2322   0.0332   0.1416   1
1193.436   0.3348   0.0392   0.2714   1
1193.466   0.4858   0.0463   0.4466   1
1193.496   0.6025   0.0512   0.6333   1
1193.526   0.6783   0.0541   0.7900   1
1193.556   0.7437   0.0564   0.8969   1
1193.586   0.8505   0.0601   0.9551   1
1193.615   0.9561   0.0634   0.9827   1
1193.645   0.9636   0.0636   0.9940   1
1193.675   0.9689   0.0638   0.9979   1
1193.705   0.9158   0.0621   0.9992   1
1193.735   0.9920   0.0645   0.9996   1
1193.765   1.0866   0.0674   0.9997   1
1193.795   1.0160   0.0653   0.9998   1
1193.825   0.9849   0.0643   0.9998   1
1193.854   0.9295   0.0626   0.9998   1
1193.884   0.9952   0.0646   0.9998   1
1193.914   0.9235   0.0624   0.9998   1
1193.944   0.8619   0.0604   0.9999   1
1193.974   0.7990   0.0583   0.9999   1
1194.004   0.8402   0.0596   0.9999   1
1194.034   0.9106   0.0620   0.9999   1
1194.064   1.0490   0.0662   0.9999   1
1194.093   1.0307   0.0656   0.9999   1
1194.123   0.9894   0.0643   0.9999   1
1194.153   1.0460   0.0661   0.9999   1
1194.183   1.0419   0.0659   0.9999   1
1194.213   0.9714   0.0638   0.9999   1
1194.243   0.9469   0.0631   0.9999   1
1194.273   0.9749   0.0639   0.9999   1
1194.303   0.9819   0.0641   0.9999   1
1194.333   0.9818   0.0641   0.9999   1
1194.362   0.9831   0.0641   0.9999   1
1194.392   1.0052   0.0648   1.0000   1
1194.422   0.9329   0.0626   1.0000   1
1194.452   0.8878   0.0611   1.0000   1
1194.482   0.8928   0.0613   1.0000   1
1194.512   0.9345   0.0625   1.0000   1
1194.542   0.8642   0.0603   1.0000   1
1194.572   0.9090   0.0618   1.0000   1
1194.601   0.9260   0.0623   1.0000   1
1194.631   0.9564   0.0632   1.0000   1
1194.661   0.9908   0.0643   1.0000   1
1194.691   0.9428   0.0628   1.0000   1
1194.721   0.9546   0.0632   1.0000   1
1194.751   0.9159   0.0619   1.0000   1
1194.781   0.8438   0.0596   1.0000   1
1194.811   0.7702   0.0571   1.0000   1
1194.840   0.8179   0.0587   1.0000   1
1194.870   0.8337   0.0592   1.0000   1
1194.900   0.8631   0.0602   1.0000   1
1194.930   0.9334   0.0625   1.0000   1
1194.960   0.9137   0.0618   1.0000   1
1194.990   0.9185   0.0620   1.0000   1
1195.020   0.9530   0.0630   1.0000   1
1195.050   0.9924   0.0643   1.0000   1
1195.080   1.0669   0.0664   1.0000   1
1195.109   1.0278   0.0653   1.0000   1
1195.139   1.0933   0.0672   1.0000   1
1195.169   1.0306   0.0653   1.0000   1
1195.199   1.0159   0.0649   1.0000   1
1195.229   1.0827   0.0669   1.0000   1
1195.259   1.0604   0.0662   1.0000   1
1195.289   1.0610   0.0662   1.0000   1
1195.319   1.1295   0.0682   1.0000   1
1195.348   1.0552   0.0661   1.0000   1
1195.378   1.0758   0.0667   1.0000   1
1195.408   1.0608   0.0661   1.0000   1
1195.438   1.0388   0.0655   1.0000   1
1195.468   1.0213   0.0650   1.0000   1
1195.498   1.0180   0.0649   1.0000   1
1195.528   1.0781   0.0666   1.0000   1
1195.558   1.0148   0.0648   1.0000   1
1195.587   1.0716   0.0665   1.0000   1
1195.617   1.0897   0.0670   1.0000   1
1195.647   1.0546   0.0659   1.0000   1
1195.677   1.1022   0.0673   1.0000   1
1195.707   1.0118   0.0647   1.0000   1
1195.737   1.0170   0.0648   1.0000   1
1195.767   1.0910   0.0670   1.0000   1
1195.797   1.0489   0.0657   1.0000   1
1195.827   1.0910   0.0670   1.0000   1
1195.856   1.1063   0.0674   1.0000   1
1195.886   1.0637   0.0662   1.0000   1
1195.916   1.1204   0.0678   1.0000   1
1195.946   1.0879   0.0669   1.0000   1
1195.976   1.1032   0.0673   1.0000   1
1196.006   1.0956   0.0671   1.0000   1
1196.036   1.0501   0.0657   1.0000   1
1196.066   1.0105   0.0646   1.0000   1
1196.095   0.9988   0.0642   1.0000   1
1196.125   1.0310   0.0652   1.0000   1
1196.155   1.0527   0.0658   1.0000   1
1196.185   1.0561   0.0659   1.0000   1
1196.215   1.0336   0.0652   1.0000   1
1196.245   1.0276   0.0651   1.0000   1
1196.275   0.9946   0.0641   1.0000   1
1196.305   1.0737   0.0664   1.0000   1
1196.334   1.0321   0.0652   1.0000   1
1196.364   1.0780   0.0665   1.0000   1
1196.394   1.0082   0.0644   1.0000   1
1196.424   1.0751   0.0664   1.0000   1
1196.454   1.0431   0.0655   1.0000   1
1196.484   1.0200   0.0647   1.0000   1
1196.514   1.0260   0.0649   1.0000   1
1196.544   1.0716   0.0663   1.0000   1
1196.573   1.0307   0.0651   1.0000   1
1196.603   1.0383   0.0653   1.0000   1
1196.633   1.0284   0.0650   1.0000   1
1196.663   1.0358   0.0652   1.0000   1
1196.693   1.0329   0.0651   1.0000   1
1196.723   1.0757   0.0663   1.0000   1
1196.753   1.0306   0.0650   1.0000   1
1196.783   1.0465   0.0655   1.0000   1
1196.813   1.0015   0.0641   1.0000   1
1196.842   1.0347   0.0651   1.0000   1
1196.872   1.0627   0.0659   1.0000   1
1196.902   0.9808   0.0634   1.0000   1
1196.932   1.0039   0.0642   1.0000   1
1196.962   1.0231   0.0647   1.0000   1
1196.992   1.0209   0.0647   1.0000   1
1197.022   0.9737   0.0634   1.0000   1
1197.052   1.0141   0.0649   1.0000   1
1197.081   0.9622   0.0635   1.0000   1
1197.111   0.9790   0.0644   1.0000   1
1197.141   0.9808   0.0648   1.0000   1
1197.171   0.8962   0.0620   1.0000   1
1197.201   0.9426   0.0635   1.0000   1
1197.231   0.9648   0.0641   1.0000   1
1197.261   0.9903   0.0648   1.0000   1
