# Best-fit normalized data and profile from VoigtFit
# column 1 : Wavelength
# column 2 : Normalized flux
# column 3 : Normalized error
# column 4 : Best-fit profile
# column 5 : Pixel mask, 1=included, 0=excluded
1186.474   1.0276   0.0674   1.0000   1
1186.504   1.0782   0.0690   1.0000   1
1186.534   1.0329   0.0676   1.0000   1
1186.564   1.1046   0.0697   1.0000   1
1186.594   1.0409   0.0678   1.0000   1
1186.624   0.9849   0.0661   1.0000   1
1186.653   1.0204   0.0672   1.0000   1
1186.683   1.0455   0.0679   1.0000   1
1186.713   1.0292   0.0674   1.0000   1
1186.743   1.0327   0.0674   1.0000   1
1186.773   1.0222   0.0672   1.0000   1
1186.803   0.9546   0.0650   1.0000   1
1186.833   1.0267   0.0673   1.0000   1
1186.863   0.9786   0.0657   1.0000   1
1186.892   1.0392   0.0676   1.0000   1
1186.922   1.0053   0.0665   1.0000   1
1186.952   0.9965   0.0663   1.0000   1
1186.982   0.9954   0.0662   1.0000   1
1187.012   1.0901   0.0691   1.0000   1
1187.042   1.0028   0.0664   1.0000   1
1187.072   0.9728   0.0655   1.0000   1
1187.102   1.0362   0.0675   1.0000   1
1187.131   0.9755   0.0655   1.0000   1
1187.161   1.0106   0.0666   1.0000   1
1187.191   0.9933   0.0660   1.0000   1
1187.221   0.9670   0.0653   1.0000   1
1187.251   0.9902   0.0660   1.0000   1
1187.281   1.0283   0.0672   1.0000   1
1187.311   1.0747   0.0685   1.0000   1
1187.341   1.0525   0.0679   1.0000   1
1187.371   0.9991   0.0662   1.0000   1
1187.400   0.9423   0.0644   1.0000   1
1187.430   1.0263   0.0670   1.0000   1
1187.460   1.0215   0.0669   1.0000   1
1187.490   1.0405   0.0674   1.0000   1
1187.520   0.9906   0.0659   1.0000   1
1187.550   0.9939   0.0660   1.0000   1
1187.580   0.9697   0.0652   1.0000   1
1187.610   1.0212   0.0668   1.0000   1
1187.639   1.0343   0.0672   1.0000   1
1187.669   0.9716   0.0652   1.0000   1
1187.699   0.9623   0.0649   1.0000   1
1187.729   1.0424   0.0674   1.0000   1
1187.759   0.9902   0.0658   1.0000   1
1187.789   0.9275   0.0638   1.0000   1
1187.819   1.0010   0.0661   1.0000   1
1187.849   0.9752   0.0653   1.0000   1
1187.879   1.0595   0.0679   1.0000   1
1187.908   0.9593   0.0647   1.0000   1
1187.938   1.0161   0.0665   1.0000   1
1187.968   1.0133   0.0664   1.0000   1
1187.998   0.9637   0.0649   1.0000   1
1188.028   1.0095   0.0663   1.0000   1
1188.058   1.0680   0.0680   1.0000   1
1188.088   1.0041   0.0660   1.0000   1
1188.118   1.0102   0.0663   1.0000   1
1188.147   1.0288   0.0667   1.0000   1
1188.177   1.0760   0.0682   1.0000   1
1188.207   1.0103   0.0662   1.0000   1
1188.237   1.0198   0.0665   1.0000   1
1188.267   1.1046   0.0691   1.0000   1
1188.297   1.0548   0.0676   1.0000   1
1188.327   0.9961   0.0658   1.0000   1
1188.357   0.9504   0.0643   1.0000   1
1188.386   0.9888   0.0655   1.0000   1
1188.416   1.0133   0.0662   1.0000   1
1188.446   1.0174   0.0663   1.0000   1
1188.476   0.9559   0.0645   1.0000   1
1188.506   1.0081   0.0661   1.0000   1
1188.536   1.0535   0.0674   1.0000   1
1188.566   0.9909   0.0655   1.0000   1
1188.596   1.0138   0.0662   1.0000   1
1188.625   1.0022   0.0658   1.0000   1
1188.655   1.0145   0.0662   1.0000   0
1188.685   1.0135   0.0664   1.0000   0
1188.715   0.9497   0.0649   1.0000   0
1188.745   0.8061   0.0603   0.9999   0
1188.775   0.7261   0.0576   0.9999   0
1188.805   0.6916   0.0561   0.9999   0
1188.835   0.8009   0.0597   0.9999   0
1188.865   0.8517   0.0617   0.9999   0
1188.894   0.9590   0.0653   0.9999   0
1188.924   0.9652   0.0655   0.9999   0
1188.954   0.9875   0.0662   0.9999   0
1188.984   0.9153   0.0639   0.9999   0
1189.014   0.9509   0.0652   0.9999   1
1189.044   0.9708   0.0660   0.9999   1
1189.074   0.9171   0.0641   0.9999   1
1189.104   0.9435   0.0647   0.9998   1
1189.133   0.9614   0.0648   0.9998   1
1189.163   0.9800   0.0652   0.9997   1
1189.193   1.0136   0.0660   0.9995   1
1189.223   0.9979   0.0655   0.9990   1
1189.253   0.9909   0.0652   0.9982   1
1189.283   0.9141   0.0628   0.9968   1
1189.313   1.0125   0.0658   0.9943   1
1189.343   0.9659   0.0644   0.9903   1
1189.372   0.9730   0.0647   0.9841   1
1189.402   0.9482   0.0639   0.9752   1
1189.432   0.8886   0.0620   0.9631   1
1189.462   0.9171   0.0629   0.9474   1
1189.492   0.8747   0.0614   0.9261   1
1189.522   0.8414   0.0604   0.8790   1
1189.552   0.7136   0.0558   0.7434   1
1189.582   0.5197   0.0482   0.5466   1
1189.612   0.5466   0.0494   0.5216   1
1189.641   0.6667   0.0541   0.6887   1
1189.671   0.7745   0.0580   0.8150   1
1189.701   0.8465   0.0604   0.8532   1
1189.731   0.7944   0.0587   0.8692   1
1189.761   0.8219   0.0596   0.8860   1
1189.791   0.8676   0.0611   0.9051   1
1189.821   0.9696   0.0643   0.9246   1
1189.851   1.0134   0.0659   0.9431   1
1189.880   0.9952   0.0657   0.9591   1
1189.910   1.0415   0.0675   0.9720   1
1189.940   1.0049   0.0665   0.9817   1
1189.970   1.0140   0.0667   0.9877   1
1190.000   0.9509   0.0647   0.9877   1
1190.030   0.9389   0.0644   0.9730   1
1190.060   0.9504   0.0647   0.9292   1
1190.090   0.8620   0.0618   0.8544   1
1190.119   0.8164   0.0601   0.7784   1
1190.149   0.7425   0.0572   0.7470   1
1190.179   0.6895   0.0554   0.7669   1
1190.209   0.5694   0.0508   0.7895   1
1190.239   0.6293   0.0533   0.7581   1
1190.269   0.5585   0.0504   0.6588   1
1190.299   0.4329   0.0449   0.5175   1
1190.329   0.3461   0.0402   0.3753   1
1190.359   0.1873   0.0305   0.2606   1
1190.388   0.1379   0.0268   0.1867   1
1190.418   0.0945   0.0229   0.1511   1
1190.448   0.1211   0.0253   0.1516   1
1190.478   0.1507   0.0277   0.1879   1
1190.508   0.2420   0.0340   0.2627   1
1190.538   0.3671   0.0409   0.3786   1
1190.568   0.5372   0.0487   0.5231   1
1190.598   0.6264   0.0523   0.6732   1
1190.627   0.7776   0.0578   0.8013   1
1190.657   0.8319   0.0596   0.8936   1
1190.687   0.9040   0.0620   0.9499   1
1190.717   0.9300   0.0628   0.9786   1
1190.747   0.9752   0.0642   0.9918   1
1190.777   0.9893   0.0647   0.9971   1
1190.807   1.0404   0.0662   0.9989   1
1190.837   0.9624   0.0638   0.9996   1
1190.866   0.9835   0.0645   0.9998   1
1190.896   1.0192   0.0655   0.9998   1
1190.926   0.9582   0.0636   0.9998   1
1190.956   0.9945   0.0648   0.9999   1
1190.986   0.9680   0.0639   0.9999   1
1191.016   0.9626   0.0637   0.9999   1
1191.046   1.0500   0.0665   0.9999   1
1191.076   1.0258   0.0662   0.9999   1
1191.106   1.0268   0.0665   0.9999   1
1191.135   1.0038   0.0662   0.9999   1
1191.165   1.0612   0.0679   0.9999   1
1191.195   1.0526   0.0679   0.9999   1
1191.225   0.9966   0.0661   0.9999   1
1191.255   1.0196   0.0666   0.9999   1
1191.285   1.0151   0.0664   0.9999   1
1191.315   1.0855   0.0686   0.9999   1
1191.345   1.0375   0.0673   0.9999   1
1191.374   0.9747   0.0654   0.9999   1
1191.404   1.0757   0.0684   0.9999   1
1191.434   1.0212   0.0669   0.9999   1
1191.464   1.0043   0.0663   0.9999   1
1191.494   1.0071   0.0662   0.9999   1
1191.524   1.0324   0.0666   0.9999   1
1191.554   1.0303   0.0663   0.9999   1
1191.584   1.0362   0.0662   0.9999   1
1191.613   0.9989   0.0649   0.9999   1
1191.643   0.9903   0.0644   0.9999   1
1191.673   1.0137   0.0651   0.9999   1
1191.703   1.0696   0.0667   0.9999   1
1191.733   1.0571   0.0663   0.9999   1
1191.763   1.0128   0.0650   0.9998   1
1191.793   1.0599   0.0664   0.9998   1
1191.823   1.0281   0.0655   0.9998   1
1191.852   1.0032   0.0647   0.9998   1
1191.882   1.0731   0.0668   0.9998   1
1191.912   1.0243   0.0653   0.9998   1
1191.942   1.0763   0.0668   0.9997   1
1191.972   1.0231   0.0653   0.9997   1
1192.002   0.9923   0.0643   0.9996   1
1192.032   1.1085   0.0677   0.9994   1
1192.062   0.9799   0.0639   0.9989   1
1192.092   1.0382   0.0657   0.9981   1
1192.121   0.9610   0.0633   0.9965   1
1192.151   0.9867   0.0640   0.9936   1
1192.181   0.9045   0.0617   0.9887   1
1192.211   0.9521   0.0636   0.9808   1
1192.241   0.8800   0.0615   0.9685   1
1192.271   0.9668   0.0645   0.9510   1
1192.301   0.9463   0.0643   0.9272   1
1192.331   0.9337   0.0644   0.8969   1
1192.360   0.9156   0.0636   0.8595   1
1192.390   0.8140   0.0597   0.8011   1
1192.420   0.7258   0.0565   0.6758   1
1192.450   0.5191   0.0485   0.4837   1
1192.480   0.4026   0.0436   0.4124   1
1192.510   0.5052   0.0481   0.5345   1
1192.540   0.7238   0.0569   0.6640   1
1192.570   0.7709   0.0584   0.7152   1
1192.600   0.7879   0.0588   0.7423   1
1192.629   0.6773   0.0545   0.7721   1
1192.659   0.8052   0.0587   0.8070   1
1192.689   0.8410   0.0596   0.8441   1
1192.719   0.8946   0.0611   0.8802   1
1192.749   0.9762   0.0636   0.9123   1
1192.779   0.9120   0.0615   0.9391   1
1192.809   0.9900   0.0639   0.9596   1
1192.839   0.9807   0.0637   0.9731   1
1192.868   0.9351   0.0622   0.9760   1
1192.898   0.9363   0.0623   0.9530   1
1192.928   0.8947   0.0610   0.8801   1
1192.958   0.7490   0.0561   0.7517   1
1192.988   0.5854   0.0499   0.6156   1
1193.018   0.5768   0.0497   0.5475   1
1193.048   0.5870   0.0501   0.5678   1
1193.078   0.7249   0.0552   0.6105   1
1193.107   0.6957   0.0541   0.5837   1
1193.137   0.5586   0.0488   0.4652   1
1193.167   0.3690   0.0402   0.3054   1
1193.197   0.2397   0.0333   0.1688   1
1193.227   0.1658   0.0283   0.0816   1
1193.257   0.0923   0.0223   0.0386   1
1193.287   0.0978   0.0227   0.0215   1
1193.317   0.0867   0.0213   0.0193   1
1193.346   0.1237   0.0251   0.0306   1
1193.376   0.1394   0.0262   0.0628   1
1193.406   0.2269   0.0325   0.1333   1
1193.436   0.3270   0.0382   0.2563   1
1193.466   0.4745   0.0452   0.4256   1
1193.496   0.5885   0.0500   0.6108   1
1193.526   0.6624   0.0528   0.7710   1
1193.556   0.7263   0.0551   0.8840   1
1193.586   0.8305   0.0587   0.9478   1
1193.615   0.9335   0.0619   0.9792   1
1193.645   0.9408   0.0621   0.9926   1
1193.675   0.9458   0.0623   0.9973   1
1193.705   0.8940   0.0607   0.9990   1
1193.735   0.9683   0.0630   0.9995   1
1193.765   1.0605   0.0657   0.9997   1
1193.795   0.9915   0.0637   0.9997   0
1193.825   0.9611   0.0628   0.9998   0
1193.854   0.9069   0.0610   0.9998   0
1193.884   0.9709   0.0630   0.9998   0
1193.914   0.9010   0.0609   0.9998   0
1193.944   0.8408   0.0589   0.9998   0
1193.974   0.7793   0.0569   0.9998   0
1194.004   0.8194   0.0582   0.9999   0
1194.034   0.8880   0.0604   0.9999   0
1194.064   1.0229   0.0645   0.9999   0
1194.093   1.0050   0.0640   0.9999   0
1194.123   0.9647   0.0627   0.9999   0
1194.153   1.0197   0.0644   0.9999   0
1194.183   1.0157   0.0642   0.9999   0
1194.213   0.9468   0.0622   0.9999   0
1194.243   0.9229   0.0615   0.9999   0
1194.273   0.9501   0.0623   0.9999   0
1194.303   0.9569   0.0625   0.9999   0
1194.333   0.9566   0.0625   0.9999   0
1194.362   0.9578   0.0625   0.9999   0
1194.392   0.9793   0.0631   0.9999   0
1194.422   0.9088   0.0609   0.9999   0
1194.452   0.8648   0.0595   0.9999   0
1194.482   0.8696   0.0597   0.9999   0
1194.512   0.9101   0.0609   0.9999   0
1194.542   0.8415   0.0587   0.9999   0
1194.572   0.8851   0.0601   1.0000   0
1194.601   0.9016   0.0607   1.0000   0
1194.631   0.9311   0.0616   1.0000   0
1194.661   0.9645   0.0626   1.0000   0
1194.691   0.9177   0.0611   1.0000   0
1194.721   0.9291   0.0615   1.0000   0
1194.751   0.8914   0.0603   1.0000   0
1194.781   0.8211   0.0580   1.0000   0
1194.811   0.7494   0.0555   1.0000   0
1194.840   0.7958   0.0571   1.0000   0
1194.870   0.8111   0.0576   1.0000   0
1194.900   0.8396   0.0585   1.0000   0
1194.930   0.9080   0.0608   1.0000   0
1194.960   0.8887   0.0601   1.0000   0
1194.990   0.8933   0.0603   1.0000   0
1195.020   0.9267   0.0613   1.0000   0
1195.050   0.9650   0.0625   1.0000   0
1195.080   1.0373   0.0646   1.0000   0
1195.109   0.9992   0.0635   1.0000   0
1195.139   1.0628   0.0653   1.0000   0
1195.169   1.0018   0.0635   1.0000   1
1195.199   0.9875   0.0631   1.0000   1
1195.229   1.0523   0.0650   1.0000   1
1195.259   1.0305   0.0644   1.0000   1
1195.289   1.0310   0.0643   1.0000   1
1195.319   1.0975   0.0663   1.0000   1
1195.348   1.0252   0.0642   1.0000   1
1195.378   1.0451   0.0648   1.0000   1
1195.408   1.0304   0.0642   1.0000   1
1195.438   1.0090   0.0636   1.0000   1
1195.468   0.9919   0.0632   1.0000   1
1195.498   0.9886   0.0631   1.0000   1
1195.528   1.0469   0.0647   1.0000   1
1195.558   0.9853   0.0629   1.0000   1
1195.587   1.0404   0.0646   1.0000   1
1195.617   1.0579   0.0651   1.0000   1
1195.647   1.0237   0.0640   1.0000   1
1195.677   1.0698   0.0653   1.0000   1
1195.707   0.9820   0.0628   1.0000   1
1195.737   0.9869   0.0629   1.0000   1
1195.767   1.0587   0.0650   1.0000   1
1195.797   1.0177   0.0638   1.0000   1
1195.827   1.0585   0.0650   1.0000   1
1195.856   1.0732   0.0654   1.0000   1
1195.886   1.0319   0.0642   1.0000   1
1195.916   1.0868   0.0658   1.0000   1
1195.946   1.0551   0.0649   1.0000   1
1195.976   1.0699   0.0653   1.0000   1
1196.006   1.0624   0.0651   1.0000   1
1196.036   1.0182   0.0637   1.0000   1
1196.066   0.9797   0.0626   1.0000   1
1196.095   0.9683   0.0623   1.0000   1
1196.125   0.9995   0.0632   1.0000   1
1196.155   1.0203   0.0638   1.0000   1
1196.185   1.0235   0.0639   1.0000   1
1196.215   1.0017   0.0632   1.0000   1
1196.245   0.9957   0.0631   1.0000   1
1196.275   0.9638   0.0621   1.0000   1
1196.305   1.0403   0.0643   1.0000   1
1196.334   0.9999   0.0631   1.0000   1
1196.364   1.0443   0.0644   1.0000   1
1196.394   0.9766   0.0624   1.0000   1
1196.424   1.0412   0.0643   1.0000   1
1196.454   1.0102   0.0634   1.0000   1
1196.484   0.9877   0.0627   1.0000   1
1196.514   0.9935   0.0629   1.0000   1
1196.544   1.0375   0.0642   1.0000   1
1196.573   0.9978   0.0630   1.0000   1
1196.603   1.0051   0.0632   1.0000   1
1196.633   0.9954   0.0629   1.0000   1
1196.663   1.0025   0.0631   1.0000   1
1196.693   0.9996   0.0630   1.0000   1
1196.723   1.0409   0.0642   1.0000   1
1196.753   0.9972   0.0629   1.0000   1
1196.783   1.0125   0.0634   1.0000   1
1196.813   0.9689   0.0620   1.0000   1
1196.842   1.0009   0.0630   1.0000   1
1196.872   1.0279   0.0638   1.0000   1
1196.902   0.9486   0.0613   1.0000   1
1196.932   0.9709   0.0621   1.0000   1
1196.962   0.9893   0.0626   1.0000   1
1196.992   0.9871   0.0625   1.0000   1
1197.022   0.9414   0.0613   1.0000   1
1197.052   0.9804   0.0627   1.0000   1
1197.081   0.9301   0.0614   1.0000   1
1197.111   0.9463   0.0622   1.0000   1
1197.141   0.9479   0.0626   1.0000   1
1197.171   0.8661   0.0599   1.0000   1
1197.201   0.9109   0.0613   1.0000   1
1197.231   0.9322   0.0620   1.0000   1
1197.261   0.9567   0.0626   1.0000   1
