# Best-fit normalized data and profile from VoigtFit
# column 1 : Wavelength
# column 2 : Normalized flux
# column 3 : Normalized error
# column 4 : Best-fit profile
# column 5 : Pixel mask, 1=included, 0=excluded
1330.090   0.9711   0.0623   1.0000   1
1330.120   0.9800   0.0626   1.0000   1
1330.150   0.9687   0.0623   1.0000   1
1330.180   0.9488   0.0617   1.0000   1
1330.210   1.0057   0.0634   1.0000   1
1330.239   0.9775   0.0625   1.0000   1
1330.269   1.0184   0.0638   1.0000   1
1330.299   0.9885   0.0629   1.0000   1
1330.329   0.9844   0.0628   1.0000   1
1330.359   0.9700   0.0623   1.0000   1
1330.389   0.9949   0.0631   1.0000   1
1330.419   0.9768   0.0626   1.0000   1
1330.449   1.0179   0.0638   1.0000   1
1330.479   0.9822   0.0628   1.0000   1
1330.509   0.9634   0.0622   1.0000   1
1330.538   1.0032   0.0634   1.0000   1
1330.568   1.0125   0.0636   1.0000   1
1330.598   0.9611   0.0621   1.0000   1
1330.628   1.0572   0.0649   1.0000   1
1330.658   1.0031   0.0634   1.0000   1
1330.688   1.0642   0.0652   1.0000   1
1330.718   1.0383   0.0644   1.0000   1
1330.748   1.0685   0.0653   1.0000   1
1330.778   1.0556   0.0650   1.0000   1
1330.807   1.0307   0.0642   1.0000   1
1330.837   1.0187   0.0639   1.0000   1
1330.867   0.9762   0.0626   1.0000   1
1330.897   0.9958   0.0632   1.0000   1
1330.927   1.0027   0.0634   1.0000   1
1330.957   1.0336   0.0643   1.0000   1
1330.987   0.9845   0.0629   1.0000   1
1331.017   0.9720   0.0625   1.0000   1
1331.047   1.0099   0.0637   1.0000   1
1331.076   1.0110   0.0637   1.0000   1
1331.106   1.0410   0.0646   1.0000   1
1331.136   1.0615   0.0652   1.0000   1
1331.166   1.0640   0.0652   1.0000   1
1331.196   1.0707   0.0655   1.0000   1
1331.226   0.9321   0.0613   1.0000   1
1331.256   0.9528   0.0620   1.0000   1
1331.286   1.0123   0.0638   1.0000   1
1331.316   0.9435   0.0617   1.0000   1
1331.345   1.0786   0.0657   1.0000   1
1331.375   1.0044   0.0636   1.0000   1
1331.405   0.9559   0.0621   1.0000   1
1331.435   0.9998   0.0634   1.0000   1
1331.465   0.9862   0.0630   1.0000   1
1331.495   1.0156   0.0639   1.0000   1
1331.525   1.0304   0.0644   1.0000   1
1331.555   1.0586   0.0652   1.0000   1
1331.585   1.0818   0.0658   1.0000   1
1331.614   1.0600   0.0652   1.0000   1
1331.644   1.0563   0.0651   1.0000   1
1331.674   1.0585   0.0652   1.0000   1
1331.704   0.9633   0.0624   1.0000   1
1331.734   0.9964   0.0634   1.0000   1
1331.764   1.0177   0.0640   1.0000   1
1331.794   1.0261   0.0643   1.0000   1
1331.824   1.0170   0.0640   1.0000   1
1331.854   1.0068   0.0637   1.0000   1
1331.883   0.9762   0.0628   1.0000   1
1331.913   1.0086   0.0638   1.0000   1
1331.943   0.9762   0.0628   1.0000   1
1331.973   1.0133   0.0643   1.0000   1
1332.003   1.0187   0.0645   1.0000   1
1332.033   0.9738   0.0634   1.0000   1
1332.063   1.0464   0.0658   1.0000   1
1332.093   0.9603   0.0635   1.0000   1
1332.123   1.0450   0.0661   1.0000   1
1332.152   0.9705   0.0638   1.0000   1
1332.182   1.0136   0.0650   1.0000   1
1332.212   1.0079   0.0647   1.0000   1
1332.242   1.0354   0.0660   1.0000   1
1332.272   1.0223   0.0655   1.0000   1
1332.302   1.0246   0.0655   1.0000   1
1332.332   1.0301   0.0656   1.0000   1
1332.362   1.0470   0.0659   1.0000   1
1332.392   1.0992   0.0671   1.0000   1
1332.421   1.0135   0.0642   1.0000   1
1332.451   0.9593   0.0624   1.0000   1
1332.481   0.9573   0.0624   1.0000   1
1332.511   1.0470   0.0650   1.0000   1
1332.541   1.0217   0.0643   1.0000   1
1332.571   0.9790   0.0630   1.0000   1
1332.601   0.9401   0.0619   1.0000   1
1332.631   1.0003   0.0637   1.0000   1
1332.661   1.0494   0.0651   1.0000   1
1332.690   1.0268   0.0645   1.0000   1
1332.720   1.0042   0.0638   1.0000   1
1332.750   0.9712   0.0628   1.0000   1
1332.780   1.0063   0.0639   1.0000   1
1332.810   0.9839   0.0632   1.0000   1
1332.840   0.9483   0.0622   1.0000   1
1332.870   1.0353   0.0647   1.0000   1
1332.900   0.9749   0.0630   1.0000   1
1332.930   0.9078   0.0609   1.0000   1
1332.959   0.9351   0.0618   1.0000   1
1332.989   0.9784   0.0631   1.0000   1
1333.019   0.9550   0.0624   1.0000   1
1333.049   0.9393   0.0619   1.0000   1
1333.079   0.9927   0.0635   0.9999   1
1333.109   0.9676   0.0628   0.9996   1
1333.139   0.9546   0.0624   0.9986   1
1333.169   0.9460   0.0621   0.9950   1
1333.199   0.9472   0.0621   0.9853   1
1333.229   0.9940   0.0636   0.9636   1
1333.258   0.9698   0.0629   0.9244   1
1333.288   0.8711   0.0598   0.8665   1
1333.318   0.7705   0.0570   0.7998   1
1333.348   0.7365   0.0563   0.7429   1
1333.378   0.7262   0.0560   0.7150   1
1333.408   0.7018   0.0555   0.7255   1
1333.438   0.8416   0.0600   0.7626   1
1333.468   0.7429   0.0562   0.7886   1
1333.498   0.7267   0.0559   0.7517   1
1333.527   0.6557   0.0529   0.6184   1
1333.557   0.4059   0.0424   0.4265   1
1333.587   0.2689   0.0355   0.2641   1
1333.617   0.2152   0.0322   0.1983   1
1333.647   0.2260   0.0330   0.2470   1
1333.677   0.3650   0.0409   0.3712   1
1333.707   0.5064   0.0472   0.4806   1
1333.737   0.5151   0.0474   0.5028   1
1333.767   0.4436   0.0440   0.4590   1
1333.796   0.4307   0.0433   0.4467   1
1333.826   0.5343   0.0477   0.5260   1
1333.856   0.7150   0.0546   0.6768   1
1333.886   0.8405   0.0589   0.8308   1
1333.916   0.8672   0.0597   0.9325   1
1333.946   0.9121   0.0612   0.9798   1
1333.976   0.9272   0.0617   0.9951   1
1334.006   0.9445   0.0622   0.9979   1
1334.036   0.9161   0.0613   0.9967   1
1334.065   0.9529   0.0625   0.9932   1
1334.095   0.9580   0.0626   0.9862   1
1334.125   0.9764   0.0631   0.9731   1
1334.155   0.9453   0.0623   0.9499   1
1334.185   0.9358   0.0620   0.9121   1
1334.215   0.9309   0.0618   0.8547   1
1334.245   0.8780   0.0601   0.7734   1
1334.275   0.8144   0.0581   0.6685   1
1334.305   0.6123   0.0509   0.5467   1
1334.334   0.4453   0.0440   0.4194   1
1334.364   0.2526   0.0341   0.3005   1
1334.394   0.1381   0.0261   0.2018   1
1334.424   0.0976   0.0229   0.1282   1
1334.454   0.0699   0.0200   0.0786   1
1334.484   0.0567   0.0185   0.0485   1
1334.514   0.0447   0.0169   0.0318   1
1334.544   0.0299   0.0149   0.0236   1
1334.574   0.0420   0.0169   0.0209   1
1334.603   0.0407   0.0167   0.0230   1
1334.633   0.0446   0.0173   0.0306   1
1334.663   0.0684   0.0196   0.0464   1
1334.693   0.0930   0.0229   0.0746   1
1334.723   0.1516   0.0275   0.1217   1
1334.753   0.1767   0.0295   0.1928   1
1334.783   0.2614   0.0351   0.2893   1
1334.813   0.3497   0.0400   0.4062   1
1334.843   0.5221   0.0483   0.5334   1
1334.872   0.6917   0.0553   0.6563   1
1334.902   0.8094   0.0596   0.7631   1
1334.932   0.8674   0.0617   0.8472   1
1334.962   0.8631   0.0614   0.9074   1
1334.992   0.9131   0.0625   0.9468   1
1335.022   0.9188   0.0625   0.9711   1
1335.052   0.9296   0.0624   0.9851   1
1335.082   0.8893   0.0608   0.9927   1
1335.112   0.9680   0.0632   0.9965   1
1335.141   0.9837   0.0636   0.9984   1
1335.171   1.0028   0.0642   0.9993   1
1335.201   1.0092   0.0644   0.9997   1
1335.231   1.0134   0.0646   0.9999   1
1335.261   1.0592   0.0659   0.9999   1
1335.291   0.9566   0.0629   1.0000   1
1335.321   1.0374   0.0653   1.0000   1
1335.351   0.9737   0.0634   1.0000   1
1335.381   0.9631   0.0631   1.0000   1
1335.410   0.9934   0.0640   1.0000   1
1335.440   0.9755   0.0635   1.0000   1
1335.470   0.9938   0.0640   1.0000   0
1335.500   0.9290   0.0621   1.0000   0
1335.530   0.9787   0.0636   1.0000   0
1335.560   0.8577   0.0598   1.0000   0
1335.590   0.7556   0.0563   1.0000   0
1335.620   0.6666   0.0532   1.0000   0
1335.650   0.4689   0.0453   1.0000   0
1335.679   0.3211   0.0381   1.0000   0
1335.709   0.2981   0.0370   1.0000   0
1335.739   0.4668   0.0452   1.0000   0
1335.769   0.6217   0.0519   1.0000   0
1335.799   0.7874   0.0583   1.0000   0
1335.829   0.9021   0.0623   1.0000   0
1335.859   0.9184   0.0628   1.0000   0
1335.889   0.9500   0.0640   1.0000   0
1335.919   0.9505   0.0637   1.0000   0
1335.948   0.9972   0.0648   1.0000   0
1335.978   1.0314   0.0660   1.0000   0
1336.008   0.9800   0.0645   1.0000   1
1336.038   1.0195   0.0658   1.0000   1
1336.068   1.0524   0.0671   1.0000   1
1336.098   1.0718   0.0679   1.0000   1
1336.128   1.0588   0.0673   1.0000   1
1336.158   1.0508   0.0667   1.0000   1
1336.188   1.0024   0.0647   1.0000   1
1336.218   0.9332   0.0623   1.0000   1
1336.247   1.0029   0.0644   1.0000   1
1336.277   0.9419   0.0626   1.0000   1
1336.307   1.0228   0.0650   1.0000   1
1336.337   0.9398   0.0625   1.0000   1
1336.367   0.9495   0.0628   1.0000   1
1336.397   1.0194   0.0650   1.0000   1
1336.427   1.0796   0.0667   1.0000   0
1336.457   0.9598   0.0632   1.0000   0
1336.487   0.9966   0.0643   1.0000   0
1336.516   0.9047   0.0614   1.0000   0
1336.546   0.8723   0.0605   1.0000   0
1336.576   0.8804   0.0607   1.0000   0
1336.606   0.8076   0.0583   1.0000   0
1336.636   0.7383   0.0559   1.0000   0
1336.666   0.6200   0.0516   1.0000   0
1336.696   0.5374   0.0484   1.0000   0
1336.726   0.4590   0.0450   1.0000   0
1336.756   0.4243   0.0434   1.0000   0
1336.785   0.4380   0.0441   1.0000   0
1336.815   0.5105   0.0472   1.0000   0
1336.845   0.5540   0.0490   1.0000   0
1336.875   0.6903   0.0543   1.0000   0
1336.905   0.7658   0.0570   1.0000   0
1336.935   0.8507   0.0598   1.0000   0
1336.965   0.9491   0.0630   1.0000   0
1336.995   0.9167   0.0619   1.0000   0
1337.025   1.0148   0.0650   1.0000   0
1337.054   1.0443   0.0659   1.0000   1
1337.084   0.9955   0.0644   1.0000   1
1337.114   1.0088   0.0648   1.0000   1
1337.144   0.9816   0.0640   1.0000   1
1337.174   1.0281   0.0654   1.0000   1
1337.204   0.9789   0.0639   1.0000   1
1337.234   0.9962   0.0645   1.0000   1
1337.264   0.9396   0.0628   1.0000   1
1337.294   0.9777   0.0639   1.0000   1
1337.323   1.0323   0.0656   1.0000   1
1337.353   1.0588   0.0664   1.0000   1
1337.383   1.0849   0.0672   1.0000   1
1337.413   1.0231   0.0653   1.0000   1
1337.443   0.9923   0.0644   1.0000   1
1337.473   1.0017   0.0646   1.0000   1
1337.503   1.0377   0.0658   1.0000   1
1337.533   1.0218   0.0653   1.0000   1
1337.563   0.9927   0.0644   1.0000   1
1337.592   1.0264   0.0655   1.0000   1
1337.622   1.0015   0.0647   1.0000   1
1337.652   0.9636   0.0636   1.0000   1
1337.682   1.0006   0.0647   1.0000   1
1337.712   1.0091   0.0649   1.0000   1
1337.742   0.9849   0.0642   1.0000   1
1337.772   0.9700   0.0638   1.0000   1
1337.802   1.0157   0.0652   1.0000   1
1337.832   1.0435   0.0660   1.0000   1
1337.861   0.9966   0.0646   1.0000   0
1337.891   1.0194   0.0653   1.0000   0
1337.921   1.0018   0.0648   1.0000   0
1337.951   0.9361   0.0628   1.0000   0
1337.981   0.9223   0.0624   1.0000   0
1338.011   0.9063   0.0619   1.0000   0
1338.041   0.9398   0.0629   1.0000   0
1338.071   0.9249   0.0625   1.0000   0
1338.101   0.8253   0.0592   1.0000   0
1338.130   0.8039   0.0585   1.0000   0
1338.160   0.8021   0.0584   1.0000   0
1338.190   0.8261   0.0593   1.0000   0
1338.220   0.8664   0.0606   1.0000   0
1338.250   0.8659   0.0606   1.0000   0
1338.280   0.9078   0.0619   1.0000   0
1338.310   0.8961   0.0616   1.0000   0
1338.340   0.8838   0.0612   1.0000   0
1338.370   0.9842   0.0644   1.0000   0
1338.399   0.9733   0.0640   1.0000   0
1338.429   0.9891   0.0645   1.0000   0
1338.459   0.9656   0.0637   1.0000   0
1338.489   0.9655   0.0637   1.0000   1
1338.519   1.0151   0.0653   1.0000   1
1338.549   0.9485   0.0633   1.0000   1
1338.579   1.0484   0.0663   1.0000   1
1338.609   0.9735   0.0640   1.0000   1
1338.639   1.0561   0.0665   1.0000   1
1338.668   1.0313   0.0658   1.0000   1
1338.698   1.1021   0.0679   1.0000   1
1338.728   0.9641   0.0638   1.0000   1
1338.758   0.9818   0.0643   1.0000   1
1338.788   0.9516   0.0634   1.0000   1
1338.818   1.0299   0.0658   1.0000   1
1338.848   1.0316   0.0659   1.0000   1
1338.878   1.0274   0.0657   1.0000   1
1338.908   1.0742   0.0671   1.0000   1
1338.938   1.0008   0.0649   1.0000   1
1338.967   0.9619   0.0637   1.0000   1
